File: 02_Appendices/Appendix_C_Experimental_Data/C_1_Materials_Tests/C_1_1_Tensile_tests/C_1_1_4_Impact Smooth 3D/Specimen_RawData_3.csv
Text Inputs : Specimen label;"1"
Dimension : Length;50,00000;mm
Dimension : Final length;100,00000;mm
Test : Rate 1;4,00000;mm/min
General : Unique Identifier;"{F30A581E-71DC-4F5A-A49C-0ACACFBA28FE}"

Time;Extension;Load;Strain 1
(sec);(mm);(N);(mm/mm)
0,00000;0,00003;0,07583;-0,00001
1,00000;0,03325;8,49535;0,00015
2,00000;0,06672;21,27972;0,00036
3,00000;0,10000;31,85817;0,00058
4,00000;0,13336;42,54002;0,00080
5,00000;0,16667;53,16233;0,00103
6,00000;0,20003;62,96681;0,00126
7,00000;0,25598;81,98671;0,00164
8,00000;0,32291;102,44171;0,00209
9,00000;0,38954;114,89082;0,00242
10,00000;0,45630;114,76547;0,00250
11,00000;0,52291;113,29904;0,00254
12,00000;0,58954;113,33977;0,00259
13,00000;0,65627;114,15445;0,00266
14,00000;0,72288;120,10797;0,00280
15,00000;0,78957;131,90844;0,00308
16,00000;0,85627;148,42787;0,00344
17,00000;0,92290;166,63934;0,00387
18,00000;0,98957;183,14623;0,00430
19,00000;1,05627;202,03765;0,00479
20,00000;1,12293;220,51232;0,00527
21,00000;1,18957;238,74885;0,00576
22,00000;1,25627;255,57221;0,00626
23,00000;1,32293;273,47975;0,00675
24,00000;1,38954;288,84292;0,00724
25,00000;1,45627;306,40266;0,00774
26,00000;1,52290;322,32357;0,00824
27,00000;1,58954;338,02204;0,00874
28,00000;1,65627;353,13768;0,00923
29,00000;1,72290;368,85496;0,00972
30,00000;1,78957;383,89852;0,01022
31,00000;1,85624;397,56023;0,01071
32,00000;1,92290;412,10875;0,01120
33,00000;1,98960;425,33493;0,01170
34,00000;2,05624;439,13457;0,01219
35,00000;2,12293;452,61141;0,01269
36,00000;2,18957;466,17603;0,01319
37,00000;2,25627;478,01095;0,01370
38,00000;2,32290;490,95829;0,01420
39,00000;2,38957;502,77440;0,01470
40,00000;2,45629;514,82869;0,01520
41,00000;2,52290;526,28140;0,01571
42,00000;2,58954;537,45830;0,01621
43,00000;2,65629;548,78253;0,01672
44,00000;2,72287;559,80901;0,01723
45,00000;2,78957;569,88611;0,01773
46,00000;2,85624;580,61811;0,01824
47,00000;2,92290;589,66433;0,01876
48,00000;2,98957;599,99521;0,01927
49,00000;3,05626;608,74061;0,01978
50,00000;3,12296;618,50436;0,02030
51,00000;3,18957;626,88943;0,02081
52,00000;3,25629;635,98263;0,02134
53,00000;3,32290;643,97599;0,02186
54,00000;3,38954;652,37982;0,02238
55,00000;3,45626;660,75549;0,02292
56,00000;3,52290;668,98069;0,02344
57,00000;3,58954;675,73953;0,02397
58,00000;3,65624;683,77363;0,02451
59,00000;3,72290;690,30053;0,02505
60,00000;3,78957;697,72364;0,02559
61,00000;3,85623;702,78100;0,02613
62,00000;3,92290;710,85896;0,02667
63,00000;3,98960;715,96014;0,02722
64,00000;4,05623;721,47497;0,02777
65,00000;4,12293;726,80493;0,02832
66,00000;4,18957;732,85559;0,02888
67,00000;4,25626;737,23611;0,02944
68,00000;4,32290;742,83243;0,03000
69,00000;4,38957;747,48867;0,03056
70,00000;4,45626;752,52410;0,03113
71,00000;4,52290;756,70723;0,03169
72,00000;4,58957;761,31024;0,03227
73,00000;4,65626;765,59675;0,03284
74,00000;4,72287;769,66081;0,03342
75,00000;4,78957;772,56551;0,03399
76,00000;4,85626;776,43213;0,03458
77,00000;4,92290;780,13898;0,03516
78,00000;4,98957;783,24731;0,03575
79,00000;5,05623;785,94517;0,03634
80,00000;5,12296;789,47656;0,03694
81,00000;5,18957;791,88934;0,03753
82,00000;5,25629;794,42738;0,03813
83,00000;5,32293;797,08453;0,03873
84,00000;5,38954;799,96418;0,03934
85,00000;5,45629;801,55283;0,03995
86,00000;5,52290;804,78648;0,04055
87,00000;5,58954;805,92390;0,04116
88,00000;5,65623;808,53403;0,04178
89,00000;5,72290;810,16971;0,04239
90,00000;5,78957;812,15631;0,04301
91,00000;5,85626;813,71674;0,04363
92,00000;5,92290;815,41510;0,04425
93,00000;5,98959;817,10396;0,04487
94,00000;6,05623;818,70202;0,04550
95,00000;6,12293;819,74547;0,04613
96,00000;6,18957;821,74772;0,04676
97,00000;6,25629;822,75039;0,04739
98,00000;6,32290;824,16357;0,04803
99,00000;6,38957;824,88116;0,04866
100,00000;6,45629;826,76429;0,04930
101,00000;6,52290;827,66367;0,04994
102,00000;6,58957;829,24599;0,05058
102,86400;6,64711;829,31183;0,05114
103,86400;6,71375;830,84721;0,05178
104,86400;6,78039;831,74333;0,05243
105,86401;6,84711;831,74966;0,05307
106,86401;6,91372;832,60816;0,05371
107,86401;6,98042;833,13147;0,05436
108,86401;7,04709;834,19057;0,05501
109,86401;7,11375;834,65120;0,05566
110,86401;7,18039;835,01153;0,05631
111,86401;7,24709;835,74783;0,05696
112,86401;7,31378;835,67267;0,05762
113,86401;7,38039;836,59394;0,05827
114,86401;7,44709;836,95427;0,05893
115,86401;7,51375;838,00703;0,05958
116,86401;7,58036;838,09793;0,06024
117,86401;7,64711;838,03842;0,06090
118,86401;7,71375;838,99098;0,06156
119,86401;7,78039;838,74660;0,06222
120,86401;7,84708;838,84057;0,06288
121,86401;7,91375;839,43903;0,06355
122,86401;7,98045;840,16910;0,06421
123,86401;8,04708;840,58270;0,06487
124,86401;8,11375;840,16602;0,06554
125,86401;8,18042;840,73944;0,06620
126,86401;8,24708;841,83924;0,06687
127,86401;8,31378;840,69241;0,06754
128,86401;8,38039;841,39118;0,06821
129,86401;8,44708;840,89609;0,06888
130,86401;8,51372;841,27840;0,06955
131,86401;8,58036;841,36613;0,07022
132,86401;8,64711;842,14006;0,07089
133,86401;8,71375;841,79221;0,07156
134,86401;8,78039;841,69824;0,07224
135,86401;8,84711;842,14630;0,07291
136,86401;8,91375;842,74476;0,07358
137,86401;8,98042;841,94262;0,07425
138,86401;9,04711;842,49415;0,07493
139,86401;9,11378;841,94895;0,07560
140,86401;9,18039;841,87370;0,07627
141,86401;9,24711;842,26225;0,07694
142,86401;9,31378;841,94578;0,07761
143,86401;9,38039;841,70448;0,07828
144,86401;9,44708;842,73545;0,07895
145,86401;9,51375;842,48474;0,07962
146,86401;9,58036;842,32492;0,08029
147,86401;9,64711;841,95519;0,08097
148,86401;9,71375;842,79180;0,08164
149,86401;9,78039;842,39384;0,08231
150,86401;9,84708;842,60069;0,08299
151,86401;9,91375;842,58188;0,08366
152,86401;9,98042;842,13065;0,08434
153,86401;10,04708;843,16786;0,08502
154,86401;10,11378;842,74169;0,08569
155,86401;10,18042;842,57564;0,08637
156,86401;10,24708;842,57247;0,08705
157,86401;10,31378;842,73228;0,08773
158,86401;10,38039;842,06490;0,08841
159,86401;10,44708;842,74169;0,08909
160,86401;10,51375;842,11808;0,08977
161,86401;10,58039;842,67585;0,09045
162,86401;10,64711;842,60693;0,09113
163,86401;10,71375;842,54425;0,09181
164,86401;10,78039;842,73852;0,09248
165,86401;10,84711;841,75775;0,09316
166,86401;10,91375;842,50662;0,09384
167,86401;10,98042;842,20590;0,09452
168,86401;11,04711;842,04292;0,09520
169,86401;11,11375;842,28730;0,09588
170,86401;11,18039;842,87953;0,09656
171,86401;11,24711;843,41848;0,09724
172,86401;11,31378;842,27165;0,09791
173,86401;11,38039;842,60693;0,09860
174,86401;11,44708;842,34374;0,09929
175,86401;11,51375;842,13382;0,09997
176,86401;11,58036;842,32492;0,10065
177,86401;11,64711;842,76358;0,10133
178,86401;11,71375;843,04251;0,10201
179,86401;11,78038;843,02686;0,10268
180,86401;11,84708;843,15846;0,10336
181,86401;11,91375;842,36255;0,10404
182,86401;11,98044;842,45028;0,10472
183,86401;12,04708;842,68218;0,10540
184,86401;12,11378;842,14322;0,10607
185,86401;12,18041;842,99548;0,10675
186,86401;12,24708;843,02053;0,10743
187,86401;12,31375;842,79804;0,10809
188,86401;12,38038;842,97042;0,10869
189,86401;12,44708;843,44046;0,10916
190,86401;12,51375;843,38086;0,10974
191,86401;12,58036;843,05815;0,11037
192,86401;12,64711;842,95478;0,11102
193,86401;12,71375;843,60959;0,11167
194,86401;12,78038;842,99548;0,11231
195,86401;12,84711;843,50314;0,11296
196,86401;12,91375;842,79496;0,11360
197,86401;12,98041;843,91041;0,11424
198,86401;13,04711;842,60069;0,11489
199,86401;13,11375;844,03576;0,11552
200,86401;13,18038;843,08637;0,11616
201,86401;13,24711;843,89159;0,11680
202,86401;13,31377;842,61633;0,11744
203,86401;13,38038;843,84773;0,11809
204,86401;13,44711;843,61592;0,11875
205,86401;13,51375;843,92922;0,11942
206,86401;13,58035;843,38402;0,12009
207,86401;13,64711;843,81960;0,12076
208,86401;13,71374;843,57830;0,12143
209,86401;13,78038;843,94179;0,12210
210,86401;13,84708;844,13914;0,12278
211,86401;13,91374;844,63423;0,12345
212,86401;13,98041;844,10161;0,12412
213,86401;14,04711;845,03852;0,12479
214,86401;14,11377;844,32093;0,12547
215,86401;14,18041;844,83167;0,12615
216,86401;14,24708;844,95069;0,12682
217,86401;14,31374;844,23944;0,12750
218,86401;14,38041;843,92922;0,12817
219,86401;14,44708;844,50264;0,12885
220,86401;14,51374;844,90376;0,12952
221,86401;14,58038;845,34865;0,13020
222,86401;14,64711;845,17319;0,13088
223,86401;14,71374;844,25202;0,13155
224,86401;14,78038;845,64639;0,13223
225,86401;14,84711;844,96010;0,13291
226,86401;14,91374;844,85356;0,13358
227,86401;14,98044;845,00089;0,13426
228,86401;15,04708;845,98167;0,13493
229,86401;15,11374;845,87513;0,13561
230,86401;15,18038;845,98474;0,13628
231,86401;15,24711;846,05999;0,13696
232,86401;15,31377;846,26367;0,13763
233,86401;15,38038;847,12850;0,13830
234,86401;15,44710;846,27615;0,13897
235,86401;15,51374;846,54251;0,13964
236,86401;15,58035;846,27308;0,14031
237,86401;15,64708;846,05683;0,14098
238,86401;15,71377;846,89977;0,14165
239,86401;15,78038;847,35090;0,14231
240,86401;15,84710;846,94987;0,14298
241,86401;15,91374;847,42615;0,14365
242,86401;15,98044;847,27891;0,14431
243,86401;16,04710;847,17236;0,14498
244,86401;16,11377;847,19425;0,14564
245,86401;16,18041;847,54517;0,14631
246,86401;16,24707;847,62042;0,14697
247,86401;16,31377;847,85540;0,14764
248,86401;16,38041;847,68934;0,14830
249,86401;16,44708;848,02145;0,14896
250,86401;16,51374;848,41317;0,14962
251,86401;16,58038;848,53536;0,15027
252,86401;16,64710;848,98341;0,15093
253,86401;16,71374;848,15314;0,15160
254,86401;16,78041;848,46644;0,15230
255,86401;16,84710;847,97759;0,15300
256,86401;16,91374;848,53852;0,15369
257,86401;16,98044;848,39752;0,15438
258,86401;17,04710;848,35049;0,15504
259,86401;17,11377;847,06889;0,15564
260,65001;17,16613;7,67126;0,14220
261,65001;17,23280;7,76213;0,13126
262,65001;17,29941;8,07233;0,12519
263,41801;17,35069;8,52041;0,12167