File: 02_Appendices/Appendix_C_Experimental_Data/C_1_Materials_Tests/C_1_1_Tensile_tests/C_1_1_4_Impact Smooth 3D/Specimen_RawData_1.csv
Text Inputs : Specimen label;"1"
Dimension : Length;50,00000;mm
Dimension : Final length;100,00000;mm
Test : Rate 1;3,00000;mm/min
General : Unique Identifier;"{A7CABEE3-3337-437A-B917-93F82D2293BE}"

Time;Extension;Load;Strain 1
(sec);(mm);(N);(mm/mm)
0,00000;0,00000;2,97013;0,00009
1,90000;0,06336;28,95249;0,00062
3,80000;0,12670;51,63536;0,00117
5,70000;0,19000;72,13110;0,00170
7,60000;0,25330;91,10712;0,00223
9,50000;0,31661;102,75407;0,00258
11,40000;0,37997;102,55353;0,00268
13,30000;0,44333;101,10901;0,00274
15,20000;0,50669;101,75450;0,00280
17,10000;0,56997;102,02085;0,00285
19,00000;0,63333;103,03607;0,00292
20,90000;0,69664;115,33477;0,00321
22,80000;0,75997;130,53188;0,00360
24,70000;0,82336;147,45864;0,00406
26,60000;0,88667;164,99016;0,00454
28,50000;0,95000;181,80413;0,00505
30,40000;1,01330;199,87146;0,00556
32,30000;1,07664;216,41280;0,00607
34,20000;1,13994;231,76658;0,00657
36,10000;1,20336;248,11367;0,00709
38,00000;1,26669;264,07535;0,00761
39,90000;1,33006;279,35079;0,00812
41,80000;1,39333;294,56983;0,00863
43,70000;1,45669;309,12461;0,00915
45,60000;1,51994;323,79844;0,00966
47,50000;1,58322;337,82991;0,01018
49,40000;1,64669;351,88959;0,01070
51,30000;1,71003;365,64535;0,01122
53,20000;1,77330;378,58011;0,01174
55,10000;1,83672;392,68681;0,01227
57,00000;1,90000;406,22945;0,01280
58,90000;1,96325;418,45609;0,01332
60,80000;2,02666;430,40384;0,01385
62,70000;2,09000;444,29116;0,01439
64,60000;2,15333;455,04509;0,01491
66,50000;2,21669;467,33124;0,01545
68,40000;2,27994;478,45803;0,01599
70,30000;2,34327;489,38431;0,01652
72,20000;2,40664;500,14136;0,01706
74,10000;2,47000;510,44407;0,01762
76,00000;2,53336;519,96028;0,01817
77,90000;2,59675;531,23119;0,01872
79,80000;2,66000;541,40543;0,01928
81,70000;2,72330;550,42030;0,01984
83,60000;2,78663;560,37521;0,02041
85,50000;2,84994;570,19535;0,02098
87,40000;2,91333;578,49581;0,02156
89,30000;2,97669;587,13150;0,02214
91,20000;3,04002;595,87690;0,02272
93,10000;3,10336;604,48130;0,02331
95,00000;3,16666;612,00778;0,02390
96,90000;3,22994;620,38968;0,02451
98,80000;3,29327;627,64045;0,02511
100,70000;3,35672;635,12931;0,02572
102,60000;3,42000;642,94096;0,02633
104,50000;3,48330;649,64960;0,02695
106,40001;3,54669;656,22670;0,02758
108,30001;3,60994;662,50293;0,02821
110,20001;3,67327;669,53432;0,02885
112,10001;3,73669;675,10558;0,02950
114,00001;3,80002;680,85538;0,03015
115,90001;3,86333;686,42036;0,03081
117,80001;3,92669;692,76555;0,03147
119,70001;3,99000;697,61924;0,03214
121,60001;4,05327;702,06244;0,03281
123,50001;4,11663;707,50206;0,03349
125,40001;4,18000;711,95466;0,03418
127,30001;4,24336;716,39470;0,03487
129,20001;4,30672;720,28018;0,03556
131,10001;4,37002;724,15937;0,03626
133,00001;4,43330;727,63120;0,03697
134,90001;4,49666;731,55421;0,03768
136,80001;4,55997;734,86627;0,03840
138,70001;4,62336;738,11249;0,03912
140,60001;4,68672;741,57179;0,03985
142,50001;4,75005;745,37266;0,04059
144,40001;4,81330;747,43759;0,04132
146,30001;4,87663;750,32660;0,04207
148,20001;4,93994;752,70170;0,04282
150,10001;5,00336;755,46228;0,04358
152,00001;5,06669;758,26668;0,04434
153,90001;5,13005;760,58228;0,04510
155,80001;5,19336;761,99546;0,04587
157,70001;5,25669;763,97266;0,04665
159,60001;5,31997;767,07788;0,04742
161,50001;5,38321;768,47854;0,04821
163,40001;5,44669;770,43064;0,04899
165,30001;5,51002;772,15717;0,04978
167,11601;5,57048;773,28519;0,05054
169,01601;5,63378;775,34383;0,05133
170,91601;5,69712;777,26152;0,05213
172,81601;5,76042;778,25482;0,05294
174,71601;5,82384;779,57083;0,05375
176,61601;5,88717;780,55789;0,05456
178,51601;5,95048;781,27543;0,05538
180,41601;6,01378;782,66980;0,05620
182,31601;6,07712;783,89496;0,05703
184,21601;6,14039;785,32062;0,05785
186,11601;6,20381;785,83453;0,05869
188,01601;6,26717;786,88422;0,05952
189,91601;6,33051;788,56060;0,06036
191,81601;6,39384;788,88647;0,06120
193,71601;6,45714;789,44424;0,06204
195,61601;6,52039;791,05170;0,06289
197,51601;6,58370;791,59690;0,06374
199,41601;6,64717;792,10140;0,06460
201,31601;6,71048;792,42410;0,06545
203,21601;6,77381;792,47430;0,06631
205,11601;6,83720;793,67748;0,06717
207,01601;6,90048;795,21602;0,06803
208,91601;6,96375;794,17257;0,06889
210,81601;7,02714;794,55804;0,06976
212,71601;7,09048;796,02133;0,07063
214,61601;7,15384;796,79210;0,07150
216,51601;7,21714;796,21244;0,07238
218,41601;7,28045;796,79843;0,07325
220,31601;7,34378;797,44700;0,07413
222,21601;7,40711;797,65385;0,07500
224,11601;7,47045;797,33422;0,07588
226,01601;7,53384;799,34588;0,07677
227,91601;7,59720;798,06745;0,07765
229,81601;7,66048;799,49629;0,07854
231,71601;7,72381;800,33289;0,07942
233,61601;7,78709;799,75631;0,08031
235,51601;7,85039;799,52450;0,08120
237,41601;7,91381;799,90989;0,08210
239,31601;7,97717;799,88800;0,08298
241,21601;8,04050;800,39240;0,08388
243,11601;8,10384;800,58984;0,08477
245,01601;8,16714;801,00661;0,08567
246,91601;8,23039;801,82757;0,08656
248,81601;8,29375;801,56438;0,08746
250,71601;8,35717;802,04066;0,08836
252,61601;8,42047;801,63954;0,08926
254,51601;8,48378;802,53882;0,09015
256,41601;8,54720;802,50753;0,09105
258,31601;8,61042;802,56704;0,09195
260,21601;8,67375;802,80518;0,09285
262,11601;8,73714;803,28463;0,09376
264,01601;8,80050;802,41039;0,09466
265,91601;8,86378;802,82399;0,09556
267,81601;8,92720;802,64853;0,09647
269,71601;8,99045;804,01776;0,09737
271,61601;9,05378;804,12123;0,09828
273,51601;9,11708;804,18698;0,09918
275,41601;9,18044;804,40324;0,10009
277,31601;9,24384;804,59751;0,10100
279,21601;9,30717;804,51285;0,10190
281,11601;9,37047;804,96408;0,10281
283,01601;9,43378;805,58136;0,10371
284,91601;9,49714;805,84148;0,10462
286,81601;9,56039;805,70672;0,10552
288,71601;9,62384;805,21479;0,10642
290,61601;9,68723;805,56888;0,10733
292,51601;9,75047;805,55631;0,10824
294,41601;9,81381;805,91356;0,10915
296,31601;9,87711;806,32716;0,11005
298,21601;9,94039;806,60917;0,11096
300,11601;10,00381;806,48381;0,11186
302,01601;10,06717;807,36121;0,11277
303,91601;10,13050;807,15436;0,11368
305,81601;10,19383;807,40508;0,11458
307,71601;10,25717;808,35130;0,11549
309,61601;10,32042;807,92205;0,11640
311,51601;10,38369;808,53933;0,11730
313,41601;10,44717;808,75559;0,11820
315,31601;10,51047;808,60825;0,11911
317,21602;10,57378;809,63606;0,12001
319,11602;10,63720;808,55191;0,12092
321,01602;10,70044;809,58279;0,12182
322,91602;10,76375;809,08453;0,12272
324,81602;10,82714;809,11899;0,12362
326,71602;10,89050;809,08770;0,12452
328,61602;10,95383;810,16868;0,12543
330,51602;11,01714;810,00263;0,12632
332,41602;11,08044;810,66377;0,12722
334,31602;11,14375;810,83616;0,12812
336,21602;11,20708;810,96152;0,12902
338,11602;11,27041;811,27482;0,12993
340,01602;11,33383;812,22113;0,13083
341,91602;11,39720;812,72563;0,13172
343,81602;11,46047;812,51254;0,13262
345,71602;11,52378;812,74444;0,13353
347,61602;11,58711;813,79097;0,13442
349,51602;11,65039;813,41499;0,13532
351,41602;11,71378;813,58105;0,13622
353,31602;11,77714;813,79414;0,13712
355,21602;11,84050;814,21398;0,13801
357,11602;11,90383;813,82543;0,13890
359,01602;11,96714;813,96643;0,13980
360,91602;12,03041;814,18576;0,14068
362,81602;12,09378;814,40201;0,14158
364,71602;12,15717;814,47409;0,14247
366,61602;12,22047;816,27266;0,14337
368,51602;12,28380;816,19434;0,14426
370,41602;12,34714;815,85273;0,14515
372,31602;12,41041;816,17860;0,14604
374,21602;12,47372;816,55467;0,14693
376,11602;12,53714;816,41674;0,14781
378,01602;12,60053;817,24403;0,14870
379,91602;12,66380;817,41009;0,14959
381,81602;12,72717;817,80804;0,15048
383,71602;12,79047;818,15580;0,15137
385,61602;12,85375;818,49108;0,15225
387,51602;12,91705;818,86714;0,15314
389,41602;12,98044;818,82328;0,15402
391,31602;13,04383;818,89844;0,15490
393,21602;13,10716;819,00498;0,15578
395,11602;13,17050;819,66612;0,15667
397,01602;13,23377;820,66879;0,15755
398,91602;13,29708;820,39312;0,15842
400,81602;13,36044;820,74720;0,15930
402,71602;13,42380;820,99475;0,16018
404,61602;13,48714;820,91326;0,16105
406,51602;13,55050;821,74670;0,16193
408,41602;13,61377;822,50815;0,16280
410,31602;13,67708;822,23238;0,16368
412,21602;13,74044;822,80580;0,16456
414,11602;13,80380;822,98126;0,16543
416,01602;13,86714;823,91510;0,16630
417,91602;13,93052;824,14690;0,16718
419,81602;13,99380;824,37564;0,16805
421,71602;14,05711;824,86132;0,16892
423,61602;14,12044;824,61378;0,16979
425,51602;14,18372;825,46612;0,17066
427,41602;14,24713;826,71009;0,17152
429,31602;14,31050;825,92042;0,17239
431,21602;14,37380;826,01132;0,17325
433,11602;14,43714;826,60979;0,17412
435,01602;14,50047;826,37165;0,17498
436,91602;14,56374;826,90436;0,17585
438,81602;14,62705;827,18637;0,17671
440,71602;14,69052;827,49343;0,17757
442,61602;14,75383;828,13269;0,17843
444,51602;14,81713;827,96654;0,17929
446,41602;14,88047;828,46479;0,18015
448,31602;14,94374;828,73115;0,18101
450,21602;15,00702;829,28576;0,18185
452,11602;15,07047;830,09107;0,18271
454,01602;15,13383;830,73340;0,18357
455,91602;15,19716;830,66756;0,18442
457,81602;15,26052;830,81489;0,18528
459,71602;15,32380;830,90886;0,18613
461,61602;15,38705;831,02481;0,18698
463,51602;15,45044;832,11837;0,18783
465,41602;15,51377;831,84261;0,18868
467,31602;15,57710;832,39414;0,18952
469,21602;15,64049;833,03647;0,19037
471,11602;15,70383;832,96755;0,19121
473,01602;15,76710;834,14260;0,19206
474,91602;15,83046;833,36234;0,19290
476,81602;15,89380;834,10805;0,19374
478,71602;15,95716;833,92952;0,19458
480,61602;16,02049;835,28310;0,19542
482,51602;16,08380;835,12962;0,19626
484,41602;16,14713;835,64660;0,19710
486,31602;16,21044;836,52399;0,19793
488,21602;16,27374;837,34496;0,19877
490,11602;16,33713;836,12911;0,19961
492,01602;16,40055;837,16633;0,20044
493,91602;16,46383;837,93085;0,20127
495,81602;16,52716;837,39189;0,20210
497,71602;16,59046;837,73350;0,20293
499,61602;16,65377;838,84895;0,20377
501,51602;16,71705;839,34087;0,20459
503,41602;16,78044;838,67973;0,20542
505,31602;16,84383;839,13412;0,20626
507,21602;16,91511;841,83514;0,20716
509,11602;17,01041;849,64680;0,20831
511,01602;17,10548;855,69425;0,20946
512,73802;17,19158;-1,37907;0,26624
514,63802;17,28656;-0,09750;0,27545
515,26002;17,31764;0,15318;0,27767