File: 02_Appendices/Appendix_C_Experimental_Data_and_Analysis Reports/C_1_Materials_Tests/C_1_1_Tensile_tests/C_1_1_6_Resto Quanton 3D/Specimen_RawData_10.csv
Text Inputs : Specimen label;"1"
Dimension : Length;50,00000;mm
Dimension : Final length;100,00000;mm
Test : Rate 1;4,00000;mm/min
General : Unique Identifier;"{26D6FC42-49AE-4369-8BC2-B907AACDD171}"

Time;Extension;Load;Strain 1
(sec);(mm);(N);(mm/mm)
0,00000;0,00000;0,50007;0,00000
0,30000;0,01715;4,67066;0,00001
0,60000;0,03900;28,23402;0,00019
0,90000;0,05977;48,28481;0,00034
1,20000;0,08000;66,90676;0,00048
1,50000;0,10003;85,41590;0,00062
1,80000;0,11997;99,58212;0,00075
2,10000;0,14003;112,13149;0,00088
2,40000;0,15997;116,38355;0,00094
2,70000;0,18003;117,16691;0,00097
3,00000;0,20000;118,03487;0,00100
3,30000;0,21991;119,10649;0,00102
3,60000;0,24003;118,52995;0,00103
3,90000;0,26000;118,60202;0,00105
4,20000;0,28003;119,44490;0,00106
4,50000;0,30000;119,78018;0,00107
4,80000;0,32000;120,60427;0,00108
5,10000;0,34003;120,19693;0,00108
5,40000;0,35997;120,39120;0,00109
5,70000;0,38003;120,84555;0,00110
6,00000;0,39997;121,61951;0,00110
6,30000;0,41994;121,51296;0,00111
6,60000;0,44003;122,93868;0,00111
6,90000;0,46000;124,14504;0,00112
7,20000;0,48006;127,63882;0,00114
7,50000;0,50000;131,39580;0,00115
7,80000;0,51997;140,26025;0,00120
8,10000;0,54000;149,76707;0,00126
8,40000;0,56000;162,11589;0,00134
8,70000;0,58000;174,23598;0,00143
9,00000;0,59997;186,51275;0,00151
9,30000;0,61997;199,56974;0,00160
9,60000;0,64000;212,67999;0,00170
9,90000;0,66003;226,05658;0,00180
10,20000;0,68003;239,13863;0,00190
10,50000;0,70000;253,72473;0,00201
10,80000;0,71997;266,60936;0,00211
11,10000;0,74000;281,18293;0,00222
11,40000;0,76003;293,67590;0,00233
11,70000;0,77997;305,89940;0,00244
12,00000;0,80000;319,01905;0,00254
12,30000;0,81994;331,92877;0,00265
12,60000;0,84003;345,23641;0,00276
12,90000;0,86003;357,71371;0,00288
13,20000;0,88003;370,99945;0,00299
13,50000;0,90006;384,02509;0,00310
13,80000;0,91997;396,22979;0,00321
14,10000;0,94003;407,99580;0,00331
14,40000;0,96000;417,96323;0,00341
14,70000;0,97997;428,88634;0,00351
15,00000;0,99997;439,71231;0,00360
15,30000;1,01994;450,58532;0,00370
15,60000;1,04006;461,42698;0,00379
15,90000;1,06003;470,83348;0,00389
16,20000;1,08003;481,24902;0,00398
16,50000;1,10000;490,94697;0,00408
16,80000;1,11997;500,92377;0,00418
17,10000;1,14003;511,04478;0,00427
17,40000;1,15997;520,43875;0,00436
17,70000;1,18003;529,72939;0,00445
18,00000;1,19997;539,32704;0,00454
18,30000;1,21988;548,60199;0,00464
18,60000;1,24006;557,86753;0,00473
18,90000;1,26003;567,35557;0,00482
19,20000;1,28003;576,71196;0,00491
19,50000;1,30003;586,82980;0,00500
19,80000;1,32000;595,45925;0,00509
20,10000;1,34006;603,91636;0,00518
20,40000;1,35997;612,86543;0,00527
20,70000;1,37997;620,78671;0,00536
21,00000;1,39997;630,40322;0,00544
21,30000;1,41997;638,19601;0,00552
21,60000;1,44003;647,81876;0,00561
21,90000;1,46003;655,64923;0,00569
22,20000;1,48003;665,01503;0,00577
22,50000;1,49997;674,01109;0,00586
22,80000;1,52000;681,76319;0,00594
23,10000;1,54003;690,42086;0,00603
23,40000;1,56000;698,53952;0,00611
23,70000;1,57997;706,89637;0,00619
24,00000;1,59997;715,72009;0,00628
24,30000;1,61997;724,43732;0,00637
24,60000;1,64003;732,78476;0,00645
24,90000;1,66003;740,31749;0,00654
25,20000;1,68003;748,90624;0,00663
25,50000;1,70000;757,85215;0,00671
25,80000;1,71997;765,40997;0,00680
26,10000;1,74003;773,82950;0,00688
26,40000;1,76000;782,10486;0,00697
26,70000;1,77997;790,46795;0,00706
27,00000;1,79997;799,23533;0,00714
27,30000;1,81997;807,58901;0,00723
27,60000;1,84003;816,25609;0,00732
27,90000;1,86000;823,66038;0,00741
28,20000;1,88003;832,75978;0,00750
28,50000;1,90008;840,70927;0,00758
28,80000;1,91997;849,24791;0,00767
29,10000;1,94000;858,10926;0,00776
29,40000;1,95997;866,44096;0,00785
29,70000;1,97997;874,55660;0,00794
30,00000;2,00000;884,47072;0,00803
30,30000;2,01994;892,11315;0,00811
30,60000;2,04005;900,85538;0,00820
30,90000;2,06000;909,18401;0,00830
31,20000;2,08003;918,73789;0,00838
31,50000;2,10003;926,60906;0,00848
31,80000;2,11997;933,90364;0,00856
32,10000;2,14003;943,14730;0,00865
32,40000;2,15997;951,71714;0,00874
32,70000;2,18003;961,07358;0,00884
33,00000;2,19997;968,75988;0,00893
33,30000;2,21991;977,45825;0,00902
33,60000;2,24003;984,93779;0,00911
33,90000;2,26003;994,00906;0,00921
34,20000;2,28003;1003,38422;0,00930
34,50000;2,30003;1011,85078;0,00939
34,80000;2,32000;1019,61540;0,00948
35,10000;2,34000;1028,13831;0,00958
35,40000;2,35994;1035,83084;0,00967
35,70000;2,38003;1045,48177;0,00976
36,00000;2,40000;1053,70702;0,00985
36,30000;2,41994;1062,49629;0,00995
36,60000;2,44000;1070,84373;0,01004
36,90000;2,46000;1079,32594;0,01014
37,20000;2,48005;1087,68595;0,01023
37,50000;2,50000;1095,70120;0,01032
37,80000;2,51997;1104,11132;0,01042
38,10000;2,54000;1113,11367;0,01051
38,40000;2,56000;1120,95661;0,01061
38,70000;2,58000;1129,76786;0,01070
39,00000;2,60000;1138,21244;0,01080
39,30000;2,61997;1146,43136;0,01090
39,60000;2,64000;1154,48432;0,01099
39,90000;2,66003;1163,26725;0,01109
40,20000;2,68003;1171,48627;0,01119
40,50000;2,70000;1179,89946;0,01128
40,80000;2,71997;1187,61715;0,01138
41,10000;2,74000;1196,52543;0,01148
41,40000;2,76003;1204,80713;0,01158
41,70000;2,77997;1213,22665;0,01168
42,00000;2,79997;1220,92860;0,01177
42,30000;2,81994;1229,26030;0,01187
42,60000;2,84003;1238,08412;0,01197
42,90000;2,86005;1246,33126;0,01207
43,20000;2,88003;1253,38146;0,01217
43,50000;2,90005;1262,50284;0,01227
43,80000;2,91997;1270,75007;0,01237
44,10000;2,94000;1279,65519;0,01246
44,40000;2,96000;1286,81194;0,01256
44,70000;2,98000;1295,48218;0,01266
45,00000;2,99997;1304,19312;0,01276
45,30000;3,01994;1312,39956;0,01286
45,60000;3,04005;1320,08586;0,01296
45,90000;3,06003;1328,79363;0,01307
46,20000;3,08002;1336,55509;0,01317
46,50000;3,10002;1344,49834;0,01327
46,80000;3,11997;1353,14036;0,01337
47,10000;3,14003;1361,52226;0,01347
47,40000;3,15997;1368,93280;0,01357
47,70000;3,18002;1377,41808;0,01368
48,00000;3,19997;1384,65948;0,01378
48,30000;3,21991;1392,93484;0,01388
48,60000;3,24005;1400,65560;0,01399
48,90000;3,26000;1408,89334;0,01409
49,20000;3,28002;1417,32544;0,01419
49,50000;3,30000;1425,07441;0,01429
49,80000;3,32000;1433,04579;0,01440
50,10000;3,34002;1440,72901;0,01450
50,40000;3,35997;1447,67892;0,01461
50,70000;3,38000;1456,19558;0,01471
51,00000;3,39997;1465,21982;0,01482
51,30000;3,41994;1473,06910;0,01492
51,60000;3,44002;1480,64569;0,01503
51,90000;3,46002;1488,79569;0,01514
52,20000;3,48002;1496,69200;0,01525
52,50000;3,49997;1504,27483;0,01535
52,80000;3,52000;1512,60039;0,01546
53,10000;3,54002;1520,48403;0,01556
53,40000;3,56000;1527,97299;0,01567
53,70000;3,57997;1535,64354;0,01578
54,00000;3,59994;1543,39252;0,01589
54,30000;3,62000;1551,35142;0,01600
54,60000;3,64002;1559,45765;0,01610
54,90000;3,66002;1567,48220;0,01621
55,20000;3,68002;1574,41646;0,01632
55,50000;3,70000;1581,90541;0,01643
55,80000;3,71997;1589,80470;0,01654
56,10000;3,74002;1597,47228;0,01665
56,40000;3,76000;1605,16482;0,01676
56,70000;3,77997;1611,84836;0,01687
57,00000;3,79997;1620,14887;0,01698
57,30000;3,81994;1627,53444;0,01709
57,60000;3,84002;1635,48067;0,01721
57,90000;3,86002;1643,53680;0,01732
58,20000;3,88002;1650,41462;0,01743
58,50000;3,90005;1656,93220;0,01754
58,80000;3,91997;1664,64355;0,01765
59,10000;3,94000;1673,39519;0,01777
59,40000;3,95997;1679,80306;0,01788
59,70000;3,97997;1686,97536;0,01799
60,00000;4,00002;1694,58333;0,01811
60,30000;4,01994;1702,78680;0,01822
60,60000;4,04005;1710,42290;0,01834
60,90000;4,06002;1717,96810;0,01845
61,20000;4,08002;1724,54212;0,01857
61,50000;4,10002;1731,11297;0,01868
61,80000;4,11997;1738,15992;0,01880
62,10000;4,14002;1746,55747;0,01892
62,40000;4,15999;1752,96851;0,01903
62,70000;4,18002;1760,88978;0,01915
63,00000;4,19997;1767,26002;0,01927
63,30000;4,21991;1773,98752;0,01938
63,60000;4,24002;1781,83988;0,01950
63,90000;4,26002;1788,80244;0,01962
64,20000;4,28005;1794,55541;0,01974
64,50000;4,29999;1801,37679;0,01986
64,80000;4,31999;1808,45521;0,01998
65,10000;4,34002;1816,35767;0,02010
65,40000;4,35994;1822,52750;0,02022
65,70000;4,38002;1829,36452;0,02034
66,00000;4,39999;1836,61524;0,02046
66,30000;4,41994;1842,69100;0,02058
66,60000;4,44002;1848,86083;0,02070
66,90000;4,45999;1856,50624;0,02083
67,20000;4,48005;1862,93926;0,02095
67,50000;4,49999;1869,46932;0,02107
67,80000;4,51997;1876,14653;0,02119
68,10000;4,54002;1883,16237;0,02132
68,40000;4,55999;1889,22863;0,02145
68,70000;4,57999;1897,20020;0,02157
69,00000;4,59997;1902,88723;0,02170
69,30000;4,61997;1909,21370;0,02182
69,60000;4,64002;1916,20737;0,02195
69,90000;4,66002;1922,84398;0,02208
70,20000;4,68005;1929,06074;0,02220
70,50000;4,69999;1935,54386;0,02233
70,80000;4,71997;1941,52240;0,02246
71,10000;4,73999;1948,52240;0,02258
71,40000;4,76002;1954,46350;0,02271
71,70000;4,77997;1960,80245;0,02284
72,00000;4,79994;1966,50829;0,02297
72,30000;4,81994;1972,86289;0,02309
72,60000;4,83999;1979,50266;0,02322
72,90000;4,86002;1984,69795;0,02336
73,20000;4,88005;1991,14326;0,02349
73,50000;4,90005;1996,59541;0,02362
73,80000;4,91997;2002,40482;0,02375
74,10000;4,93999;2008,80654;0,02388
74,40000;4,95999;2014,45594;0,02401
74,70000;4,97999;2020,19028;0,02415
75,00000;4,99999;2025,84919;0,02428
75,30000;5,01994;2031,38273;0,02441
75,60000;5,04005;2037,52741;0,02454
75,90000;5,06002;2042,74766;0,02468
76,20000;5,08002;2048,63232;0,02481
76,50000;5,10002;2053,55175;0,02495
76,80000;5,11997;2059,22648;0,02508
77,10000;5,14005;2065,18304;0,02522
77,40000;5,15999;2070,72608;0,02535
77,70000;5,17999;2075,55164;0,02549
78,00000;5,19999;2080,72178;0,02563
78,30000;5,21991;2086,49039;0,02576
78,60000;5,24002;2091,90492;0,02591
78,90000;5,26002;2097,29448;0,02604
79,20000;5,28002;2101,86616;0,02618
79,50000;5,30002;2107,19611;0,02632
79,80000;5,31999;2112,28784;0,02647
80,10000;5,34005;2117,28252;0,02661
80,40000;5,35997;2122,67209;0,02675
80,57000;5,37136;1444,14753;0,03917
80,57400;5,37165;1195,71704;0,04422