File: 02_Appendices/Appendix_C_Experimental_Data_and_Analysis Reports/C_1_Materials_Tests/C_1_1_Tensile_tests/C_1_1_6_Resto Quanton 3D/Specimen_RawData_2.csv
Text Inputs : Specimen label;"1"
Dimension : Length;50,00000;mm
Dimension : Final length;100,00000;mm
Test : Rate 1;4,00000;mm/min
General : Unique Identifier;"{C97498DD-E7A6-4ED2-A811-94207526C265}"

Time;Extension;Load;Strain 1
(sec);(mm);(N);(mm/mm)
0,00000;0,00000;0,48415;0,00000
0,40000;0,02442;13,31866;0,00003
0,80000;0,05293;38,68687;0,00024
1,20000;0,07997;60,20723;0,00042
1,60000;0,10670;79,72848;0,00059
2,00000;0,13330;97,82715;0,00075
2,40000;0,15997;113,82329;0,00089
2,80000;0,18672;116,48356;0,00094
3,20000;0,21330;116,97864;0,00096
3,60000;0,24003;116,14201;0,00097
4,00000;0,26661;116,04802;0,00098
4,40000;0,29333;115,87881;0,00099
4,80000;0,32000;115,39313;0,00100
5,20000;0,34669;116,77498;0,00100
5,60000;0,37336;115,56234;0,00101
6,00000;0,40000;115,56234;0,00102
6,40000;0,42667;115,30539;0,00102
6,80000;0,45333;116,16709;0,00103
7,20000;0,48006;116,32062;0,00103
7,60000;0,50667;115,36493;0,00104
8,00000;0,53328;117,73693;0,00105
8,40000;0,56000;131,03832;0,00116
8,80000;0,58667;142,97668;0,00124
9,20000;0,61336;160,72753;0,00139
9,60000;0,64000;178,23084;0,00153
10,00000;0,66669;194,88187;0,00168
10,40000;0,69333;210,75893;0,00183
10,80000;0,71997;227,35042;0,00197
11,20000;0,74669;242,87028;0,00211
11,60000;0,77336;257,36238;0,00225
12,00000;0,79997;273,07649;0,00240
12,40000;0,82664;287,87253;0,00254
12,80000;0,85333;301,58127;0,00268
13,20000;0,88003;315,38715;0,00281
13,60000;0,90669;328,35640;0,00294
14,00000;0,93325;341,07810;0,00306
14,40000;0,96000;351,90096;0,00318
14,80000;0,98669;363,04342;0,00329
15,20000;1,01333;372,43743;0,00340
15,60000;1,04003;382,63046;0,00351
16,00000;1,06664;392,15921;0,00361
16,40000;1,09336;402,44311;0,00371
16,80000;1,11997;411,93110;0,00381
17,20000;1,14669;420,99296;0,00391
17,60000;1,17336;431,00743;0,00401
18,00000;1,19997;439,94081;0,00412
18,40000;1,22664;449,95523;0,00422
18,80000;1,25333;459,80671;0,00432
19,20000;1,28003;469,21326;0,00442
19,60000;1,30667;479,04281;0,00453
20,00000;1,33336;488,95697;0,00464
20,40000;1,35997;498,55155;0,00474
20,80000;1,38667;509,32425;0,00485
21,20000;1,41333;517,85968;0,00495
21,60000;1,44003;526,94036;0,00506
22,00000;1,46667;537,13340;0,00517
22,40000;1,49333;547,16035;0,00527
22,80000;1,52000;557,80774;0,00538
23,20000;1,54669;566,63775;0,00549
23,60000;1,57336;576,28243;0,00560
24,00000;1,59997;586,60079;0,00571
24,40000;1,62666;596,04179;0,00582
24,80000;1,65333;606,47926;0,00592
25,20000;1,68003;616,13331;0,00604
25,60000;1,70669;625,67773;0,00615
26,00000;1,73330;635,80498;0,00626
26,40000;1,76003;645,83505;0,00637
26,80000;1,78666;657,23760;0,00648
27,20000;1,81336;666,35585;0,00660
27,60000;1,84003;675,84389;0,00672
28,00000;1,86664;686,54139;0,00683
28,40000;1,89336;695,88525;0,00694
28,80000;1,91997;707,06848;0,00706
29,20000;1,94669;716,27446;0,00718
29,60000;1,97336;726,89364;0,00729
30,00000;2,00003;735,88970;0,00741
30,40000;2,02664;746,39297;0,00752
30,80000;2,05333;756,61731;0,00764
31,20000;2,08003;766,66623;0,00776
31,60000;2,10669;776,25765;0,00787
32,00000;2,13330;786,31276;0,00799
32,40000;2,15997;796,85049;0,00811
32,80000;2,18672;807,00275;0,00823
33,20000;2,21333;816,42503;0,00835
33,60000;2,24003;827,52043;0,00847
34,00000;2,26661;837,13382;0,00859
34,40000;2,29336;847,68403;0,00872
34,80000;2,32000;858,37534;0,00884
35,20000;2,34669;868,35213;0,00896
35,60000;2,37336;878,31952;0,00909
36,00000;2,40000;888,65673;0,00921
36,40000;2,42666;898,56144;0,00933
36,80000;2,45333;909,33731;0,00946
37,20000;2,48005;919,78731;0,00958
37,60000;2,50666;929,27534;0,00971
38,00000;2,53327;939,29600;0,00983
38,40000;2,56000;949,64262;0,00996
38,80000;2,58669;959,52544;0,01009
39,20000;2,61336;969,17320;0,01022
39,60000;2,64003;979,70469;0,01035
40,00000;2,66669;990,08260;0,01048
40,40000;2,69333;1000,36021;0,01060
40,80000;2,71997;1009,93905;0,01073
41,20000;2,74669;1020,17289;0,01087
41,60000;2,77336;1030,68240;0,01099
42,00000;2,79997;1040,98199;0,01112
42,40000;2,82663;1050,27882;0,01125
42,80000;2,85336;1060,33087;0,01138
43,20000;2,88003;1071,42003;0,01151
43,60000;2,90669;1080,98956;0,01164
44,00000;2,93327;1090,69375;0,01177
44,40000;2,96000;1100,36349;0,01190
44,80000;2,98669;1110,45940;0,01203
45,20000;3,01333;1120,86236;0,01217
45,60000;3,04005;1130,35664;0,01230
46,00000;3,06663;1140,04835;0,01243
46,40000;3,09333;1150,70827;0,01257
46,80000;3,11997;1160,04897;0,01270
47,20000;3,14669;1169,66860;0,01284
47,60000;3,17336;1179,83967;0,01298
48,00000;3,19997;1189,71625;0,01312
48,40000;3,22663;1199,12280;0,01325
48,80000;3,25333;1208,95552;0,01339
49,20000;3,28002;1219,13282;0,01353
49,60000;3,30666;1228,83394;0,01367
50,00000;3,33336;1237,71410;0,01381
50,40000;3,35997;1247,94161;0,01395
50,80000;3,38666;1257,91840;0,01409
51,20000;3,41333;1268,22740;0,01423
51,60000;3,44002;1277,03855;0,01437
52,00000;3,46666;1287,32249;0,01451
52,40000;3,49333;1297,43088;0,01466
52,80000;3,52000;1307,23221;0,01480
53,20000;3,54669;1317,01166;0,01495
53,60000;3,57336;1326,91646;0,01509
54,00000;3,59994;1335,56779;0,01523
54,40000;3,62666;1345,11534;0,01538
54,80000;3,65333;1353,75420;0,01553
55,20000;3,68002;1364,05379;0,01567
55,60000;3,70669;1373,46350;0,01582
56,00000;3,73330;1382,36871;0,01596
56,40000;3,76000;1391,99765;0,01611
56,80000;3,78666;1401,35093;0,01626
57,20000;3,81336;1410,33446;0,01641
57,60000;3,84002;1419,16759;0,01656
58,00000;3,86663;1428,86871;0,01671
58,40000;3,89336;1438,43191;0,01686
58,80000;3,91997;1447,02066;0,01701
59,20000;3,94669;1457,06329;0,01716
59,60000;3,97336;1465,33549;0,01731
60,00000;4,00000;1474,64806;0,01746
60,40000;4,02663;1483,25870;0,01761
60,80000;4,05336;1492,85011;0,01776
61,20000;4,08002;1502,83631;0,01792
61,60000;4,10669;1510,75134;0,01807
62,00000;4,13330;1518,66637;0,01823
62,40000;4,15997;1527,33661;0,01838
62,80000;4,18672;1536,43610;0,01854
63,20000;4,21333;1545,19090;0,01869
63,60000;4,24002;1554,30604;0,01885
64,00000;4,26660;1561,70400;0,01901
64,40000;4,29333;1570,85676;0,01917
64,80000;4,31999;1580,03755;0,01932
65,20000;4,34669;1588,02792;0,01949
65,60000;4,37336;1596,28447;0,01965
66,00000;4,39999;1604,90442;0,01981
66,40000;4,42663;1612,86965;0,01996
66,80000;4,45333;1621,23274;0,02013
67,20000;4,48005;1629,97823;0,02029
67,60000;4,50666;1638,58887;0,02046
68,00000;4,53330;1645,67046;0,02062
68,40000;4,55999;1653,96146;0,02079
68,80000;4,58669;1662,50635;0,02095
69,20000;4,61339;1670,41197;0,02112
69,60000;4,64002;1678,93488;0,02128
70,00000;4,66669;1686,96269;0,02145
70,40000;4,69333;1694,41085;0,02162
70,80000;4,71997;1702,46065;0,02179
71,20000;4,74669;1710,69838;0,02196
71,60000;4,77336;1717,96791;0,02214
72,00000;4,79997;1725,79214;0,02231
72,40000;4,82663;1733,22149;0,02248
72,80000;4,85336;1740,92967;0,02266
73,20000;4,88002;1748,69429;0,02284
73,60000;4,90669;1755,81649;0,02301
74,00000;4,93327;1763,29911;0,02319
74,40000;4,95999;1770,38703;0,02337
74,80000;4,98669;1778,02630;0,02355
75,20000;5,01336;1784,78509;0,02373
75,60000;5,04005;1792,96955;0,02391
76,00000;5,06663;1799,16117;0,02409
76,40000;5,09336;1806,28672;0,02427
76,80000;5,11997;1813,07681;0,02445
77,20000;5,14672;1819,34685;0,02464
77,60000;5,17336;1826,94849;0,02483
78,00000;5,19997;1834,12712;0,02502
78,40000;5,22663;1840,83581;0,02520
78,80000;5,25333;1846,92722;0,02539
79,20000;5,28002;1854,31261;0,02558
79,60000;5,30666;1861,18111;0,02577
80,00000;5,33336;1866,83387;0,02596
80,40000;5,35997;1873,15699;0,02614
80,80000;5,38666;1880,11322;0,02634
81,20000;5,41333;1886,42722;0,02654
81,60000;5,44002;1893,25493;0,02673
82,00000;5,46666;1899,53111;0,02693
82,40000;5,49333;1905,35933;0,02713
82,80000;5,51999;1911,32538;0,02733
83,20000;5,54669;1917,87425;0,02752
83,60000;5,57336;1923,20421;0,02773
84,00000;5,59997;1929,25800;0,02793
84,40000;5,62666;1935,16444;0,02813
84,80000;5,65333;1940,70749;0,02834
85,20000;5,68002;1946,69552;0,02855
85,58800;5,70589;1630,39174;0,01906
85,59800;5,70655;1067,12729;-0,00006