File: 02_Appendices/Appendix_C_Experimental_Data_and_Analysis Reports/C_1_Materials_Tests/C_1_1_Tensile_tests/C_1_1_1_Quantun_70_30/Specimen_RawData_5.csv
Text Inputs : Specimen label;"1"
Dimension : Length;50,00000;mm
Dimension : Final length;100,00000;mm
Test : Rate 1;2,00000;mm/min
General : Unique Identifier;"{8675EAE9-BB96-432E-B07F-419CDB577808}"

Time;Extension;Load;Strain 1
(sec);(mm);(N);(mm/mm)
0,00000;0,00000;7,03795;0,00010
1,50000;0,05043;49,33294;0,00046
3,00000;0,10000;82,37804;0,00080
4,50000;0,14957;95,61363;0,00096
6,00000;0,20085;97,81956;0,00100
7,50000;0,25043;99,37374;0,00103
9,00000;0,30000;100,71171;0,00106
10,50000;0,35014;101,32273;0,00108
12,00000;0,39971;102,14056;0,00111
13,50000;0,44986;104,75382;0,00114
15,00000;0,49943;111,81657;0,00123
16,50000;0,54986;137,87413;0,00146
18,00000;0,59971;169,87894;0,00176
19,50000;0,65100;204,12728;0,00209
21,00000;0,70028;236,01302;0,00243
22,50000;0,74986;267,93324;0,00275
24,00000;0,79943;298,83820;0,00308
25,50000;0,84986;329,23557;0,00341
27,00000;0,89971;359,14411;0,00374
28,50000;0,94986;387,82435;0,00406
30,00000;1,00000;417,16574;0,00439
31,50000;1,04957;444,01293;0,00471
33,00000;1,10028;472,32029;0,00504
34,50000;1,15014;498,86042;0,00535
36,00000;1,20057;525,13732;0,00567
37,50000;1,24957;550,56508;0,00598
39,00000;1,30028;576,96104;0,00630
40,50000;1,34957;601,54279;0,00661
42,00000;1,40000;626,61017;0,00692
43,50000;1,44986;650,44928;0,00724
45,00000;1,50000;676,29376;0,00755
46,50000;1,55043;701,26406;0,00787
48,00000;1,60028;724,70834;0,00819
49,50000;1,65014;747,76094;0,00850
51,00000;1,69943;771,34622;0,00881
52,50000;1,75043;794,98794;0,00912
54,00000;1,80000;816,00696;0,00942
55,50000;1,84986;836,53713;0,00971
57,00000;1,89971;856,67251;0,01000
58,50000;1,94957;876,98968;0,01030
60,00000;2,00028;898,59152;0,01060
61,50000;2,05042;918,50124;0,01090
63,00000;2,10000;938,64296;0,01119
64,50000;2,14957;957,27118;0,01149
66,00000;2,20057;978,08335;0,01179
67,50000;2,25014;997,20042;0,01209
69,00000;2,30028;1018,07844;0,01240
70,50000;2,35014;1037,40543;0,01270
72,00000;2,39943;1055,90830;0,01300
73,50000;2,44957;1074,98458;0,01331
75,00000;2,49943;1093,66914;0,01361
76,50000;2,54985;1113,04941;0,01393
78,00000;2,59971;1131,26086;0,01424
79,50000;2,65099;1151,18325;0,01456
81,00000;2,70028;1168,38571;0,01487
82,50000;2,75014;1186,39981;0,01518
84,00000;2,79943;1204,04726;0,01549
85,50000;2,85014;1222,45606;0,01581
87,00000;2,89971;1239,15412;0,01613
88,50000;2,94985;1256,37548;0,01645
90,00000;2,99971;1273,80351;0,01677
91,50000;3,04957;1290,85565;0,01710
93,00000;3,10028;1307,56935;0,01743
94,50000;3,15014;1324,43346;0,01776
96,00000;3,20057;1341,12835;0,01809
97,50000;3,24985;1357,19031;0,01842
99,00000;3,30028;1373,02345;0,01876
100,50000;3,34985;1389,62753;0,01909
102,00000;3,40000;1405,00003;0,01943
103,50000;3,44957;1419,85882;0,01977
105,00000;3,49971;1435,14359;0,02012
106,50001;3,55014;1451,64113;0,02047
108,00001;3,60028;1466,72856;0,02082
109,50001;3,65042;1481,19871;0,02117
111,00001;3,69971;1495,20515;0,02152
112,50001;3,75042;1509,09247;0,02187
114,00001;3,80000;1523,27437;0,02223
115,50001;3,84985;1536,91107;0,02259
117,00001;3,89971;1550,15606;0,02295
118,50001;3,94928;1562,68347;0,02331
120,00001;4,00028;1576,15393;0,02368
121,50001;4,05014;1589,39585;0,02405
123,00001;4,10028;1602,20843;0,02443
124,50001;4,14957;1614,27520;0,02480
126,00001;4,20085;1627,39810;0,02519
127,50001;4,25014;1638,92601;0,02556
129,00001;4,30028;1649,99310;0,02595
130,50001;4,35014;1661,75924;0,02634
132,00001;4,39943;1673,15230;0,02673
133,50001;4,44957;1683,69319;0,02712
135,00001;4,49943;1693,76396;0,02751
136,50001;4,54985;1704,25791;0,02792
138,00001;4,59971;1714,55108;0,02833
139,50001;4,65099;1725,66846;0,02874
141,00001;4,70028;1734,18839;0,02914
142,50001;4,75014;1743,65118;0,02956
144,00001;4,79942;1751,88594;0,02997
145,50001;4,85014;1761,14514;0,03039
147,00001;4,89971;1768,39586;0,03081
148,50001;4,94985;1777,61130;0,03124
150,00001;4,99971;1785,14402;0,03167
151,50001;5,04985;1793,17500;0,03211
153,00001;5,10028;1800,55108;0,03255
154,50001;5,15042;1808,52879;0,03300
156,00001;5,20056;1815,84228;0,03345
157,50001;5,24985;1822,95199;0,03390
159,00001;5,29999;1829,11865;0,03435
160,50001;5,34985;1835,51069;0,03481
162,00001;5,39971;1841,85598;0,03527
163,50001;5,44985;1847,89412;0,03574
165,00001;5,49942;1853,09555;0,03621
166,50001;5,55042;1859,03031;0,03670
168,00001;5,60028;1864,37592;0,03717
169,50001;5,65071;1869,12939;0,03765
171,00001;5,69971;1874,08328;0,03813
172,50001;5,75042;1879,11242;0,03863
174,00001;5,79999;1882,47766;0,03911
175,50001;5,84957;1886,21581;0,03961
177,00001;5,89942;1889,59055;0,04010
178,50001;5,94928;1893,56692;0,04060
180,00001;6,00028;1897,34586;0,04112
181,50001;6,05042;1900,89904;0,04163
183,00001;6,10028;1903,79433;0,04215
184,50001;6,14957;1906,79934;0,04266
186,00001;6,20085;1910,41529;0,04320
187,50001;6,24985;1912,19822;0,04372
189,00001;6,30028;1914,71130;0,04425
190,50001;6,34985;1915,72960;0,04479
192,00001;6,39971;1918,29894;0,04533
193,50001;6,44957;1920,34505;0,04587
195,00001;6,49971;1921,54832;0,04641
196,50001;6,54985;1923,55998;0,04696
198,00001;6,59999;1925,79739;0,04752
199,50001;6,65070;1926,80620;0,04808
201,00001;6,70028;1927,81519;0,04864
202,50001;6,74985;1927,96569;0,04919
204,00001;6,79971;1929,20957;0,04976
205,46401;6,84843;1928,96519;0,05031
206,96401;6,89828;1928,95588;0,05087
208,46401;6,94871;1930,51938;0,05145
209,96401;6,99885;1931,15231;0,05203
211,46401;7,04843;1931,35608;0,05261
212,96401;7,09914;1931,65373;0,05319
214,46401;7,14928;1931,54085;0,05378
215,96401;7,19914;1932,37755;0,05437
217,46401;7,24871;1932,22091;0,05496
218,96401;7,29914;1931,78207;0,05556
220,46401;7,34871;1930,95170;0,05615
221,96401;7,39857;1930,83901;0,05674
223,46401;7,44842;1930,71999;0,05735
224,96401;7,49800;1929,38503;0,05794
226,46401;7,54899;1929,90843;0,05856
227,96401;7,59885;1930,03360;0,05917
229,46401;7,64928;1929,49157;0,05978
230,96401;7,69828;1928,37603;0,06038
232,46401;7,74956;1928,33226;0,06100
233,96401;7,79885;1926,66836;0,06161
235,46401;7,84871;1925,98850;0,06222
236,96401;7,89828;1923,97051;0,06284
238,46401;7,94785;1923,24035;0,06345
239,96401;7,99857;1922,79238;0,06408
241,46401;8,04899;1923,30312;0,06470
242,96401;8,09914;1922,11233;0,06533
244,46401;8,14842;1920,48606;0,06596
245,96401;8,19942;1920,79954;0,06659
247,46401;8,24871;1919,20772;0,06722
248,96401;8,29914;1918,07337;0,06785
250,46401;8,34871;1916,75741;0,06848
251,96401;8,39857;1915,73594;0,06912
253,46401;8,44842;1914,11283;0,06975
254,96401;8,49800;1913,18840;0,07039
256,46401;8,54814;1912,22019;0,07103
257,96401;8,59857;1910,74423;0,07167
259,46401;8,64985;1910,99178;0,07232
260,96401;8,69942;1909,38748;0,07296
262,46401;8,74899;1907,65783;0,07359
263,96401;8,79828;1906,54863;0,07424
265,46401;8,84842;1905,28911;0,07488
266,96401;8,89857;1904,19238;0,07552
268,46401;8,94842;1902,24648;0,07617
269,96401;8,99857;1901,36600;0,07682
271,46401;9,04785;1899,66448;0,07746
272,96401;9,09913;1899,72725;0,07813
274,46401;9,14899;1897,91303;0,07878
275,96401;9,19942;1897,46488;0,07943
277,46401;9,24899;1896,31172;0,08008
278,96401;9,29942;1895,03022;0,08074
280,46401;9,34871;1893,36631;0,08139
281,96401;9,39856;1892,21334;0,08204
283,46401;9,44814;1890,07316;0,08269
284,96401;9,49771;1889,73155;0,08335
286,46401;9,54928;1890,17653;0,08402
287,96401;9,59885;1889,16754;0,08468
289,46401;9,64928;1888,23380;0,08534
290,96401;9,69828;1886,30987;0,08600
292,46401;9,74899;1886,00272;0,08666
293,96401;9,79885;1884,07581;0,08731
295,46401;9,84871;1882,98523;0,08797
296,96401;9,89799;1881,07714;0,08863
298,46401;9,94814;1879,79229;0,08929
299,96401;9,99828;1879,68891;0,08995
301,46401;10,04899;1879,71406;0,09062
302,96401;10,09885;1878,86488;0,09128
304,46401;10,14842;1877,53309;0,09194
305,96401;10,19942;1876,47715;0,09261
307,46401;10,24899;1875,53409;0,09327
308,96401;10,29885;1874,55006;0,09393
310,46401;10,34899;1873,78246;0,09460
311,96401;10,39828;1873,46600;0,09526
313,46401;10,44871;1872,86120;0,09593
314,96401;10,49828;1871,11907;0,09659
316,46402;10,54871;1870,85588;0,09727
317,96402;10,59856;1869,07295;0,09793
319,46402;10,64985;1869,71202;0,09861
320,96402;10,69913;1868,01385;0,09927
322,46402;10,74899;1867,48430;0,09994
323,96402;10,79856;1865,72019;0,10060
325,46402;10,84871;1865,30966;0,10127
326,96402;10,89828;1863,45149;0,10193
328,46402;10,94842;1862,96906;0,10260
329,96402;10,99856;1861,89413;0,10327
331,46402;11,04785;1860,79126;0,10394
332,96402;11,09913;1861,09524;0,10462
334,46402;11,14899;1860,02348;0,10529
335,96402;11,19913;1859,78860;0,10596
337,46402;11,24842;1857,84586;0,10663
338,96402;11,29942;1858,09657;0,10731
340,46402;11,34842;1856,24156;0,10797
341,96402;11,39856;1856,30415;0,10865
343,46402;11,44842;1854,22674;0,10932
344,96402;11,49771;1853,57183;0,10998
346,46402;11,54899;1854,58083;0,11067
347,96402;11,59913;1853,48727;0,11135
349,46402;11,64928;1852,92009;0,11202
350,96402;11,69828;1851,43482;0,11268
352,46402;11,74927;1851,02429;0,11336
353,96402;11,79885;1850,40087;0,11403
355,46402;11,84899;1850,14382;0,11470
356,96402;11,89828;1848,11037;0,11537
358,46402;11,94785;1847,31744;0,11604
359,96402;11,99885;1847,27367;0,11672
361,46402;12,04927;1846,65639;0,11739
362,96402;12,09885;1846,64689;0,11807
364,46402;12,14842;1846,26468;0,11874
365,96402;12,19942;1845,08655;0,11942
367,46402;12,24899;1843,97101;0,12010
368,96402;12,29885;1843,76109;0,12077
370,46402;12,34870;1843,03410;0,12145
371,96402;12,39828;1842,90875;0,12212
373,46402;12,44813;1841,60843;0,12280
374,96402;12,49771;1841,21039;0,12347
376,46402;12,54842;1841,79638;0,12416
377,96402;12,59828;1841,00363;0,12483
379,46402;12,65013;1841,39535;0,12553
380,96402;12,69913;1840,08237;0,12620
382,46402;12,74927;1840,10752;0,12687
383,96402;12,79856;1838,54084;0,12754
385,46402;12,84870;1838,19290;0,12822
386,96402;12,89828;1836,83932;0,12888
388,46402;12,94842;1835,71763;0,12956
389,96402;12,99856;1836,06222;0,13024
391,46402;13,04785;1835,56713;0,13091
392,96402;13,09885;1835,35721;0,13160
394,46402;13,14899;1835,01877;0,13228
395,96402;13,19942;1834,60843;0,13298
397,46402;13,24842;1834,09769;0,13368
398,96402;13,29941;1833,17959;0,13444
399,61402;13,32107;1021,86985;0,12788