File: 02_Appendices/Appendix_C_Experimental_Data_and_Analysis Reports/C_1_Materials_Tests/C_1_1_Tensile_tests/C_1_1_1_Quantun_70_30/Specimen_RawData_4.csv
Text Inputs : Specimen label;"1"
Dimension : Length;50,00000;mm
Dimension : Final length;100,00000;mm
Test : Rate 1;2,00000;mm/min
General : Unique Identifier;"{3134B78B-0030-4E3D-B7CF-3C5A44EDC0B5}"

Time;Extension;Load;Strain 1
(sec);(mm);(N);(mm/mm)
0,00000;0,00000;2,83703;0,00000
1,70000;0,05641;55,14018;0,00039
3,40000;0,11311;99,89176;0,00082
5,10000;0,16980;115,69676;0,00100
6,80000;0,22650;116,08844;0,00103
8,50000;0,28348;116,20751;0,00105
10,20000;0,34017;116,74332;0,00107
11,90000;0,39687;115,71243;0,00108
13,60000;0,45356;116,92506;0,00109
15,30000;0,50997;120,16816;0,00115
17,00000;0,56667;144,93162;0,00138
18,70000;0,62336;184,95487;0,00176
20,40000;0,68034;222,31783;0,00213
22,10000;0,73647;260,11635;0,00250
23,80000;0,79373;297,45111;0,00290
25,50000;0,84986;332,93716;0,00328
27,20000;0,90655;368,47959;0,00366
28,90000;0,96353;403,35148;0,00404
30,60000;1,01937;435,19964;0,00441
32,30000;1,07721;467,04463;0,00480
34,00000;1,13305;498,08118;0,00515
35,70000;1,19031;528,19969;0,00552
37,40000;1,24644;556,72326;0,00587
39,10000;1,30342;585,72623;0,00622
40,80000;1,36011;613,43824;0,00658
42,50000;1,41681;638,61534;0,00690
44,20000;1,47265;660,88461;0,00721
45,90000;1,53048;684,85215;0,00752
47,60000;1,58689;709,24275;0,00784
49,30000;1,64359;730,76938;0,00814
51,00000;1,69943;752,70021;0,00844
52,70000;1,75669;776,36386;0,00875
54,40000;1,81367;798,20696;0,00906
56,10000;1,87037;820,93999;0,00937
57,80000;1,92592;840,20738;0,00967
59,50000;1,98376;863,41351;0,00999
61,20000;2,04017;884,90881;0,01029
62,90000;2,09715;908,06168;0,01061
64,60000;2,15270;928,11249;0,01092
66,30000;2,20968;948,88397;0,01123
68,00000;2,26695;970,50779;0,01155
69,70000;2,32307;990,03213;0,01187
71,40000;2,37948;1013,41689;0,01219
73,10000;2,43703;1034,59256;0,01252
74,80000;2,49316;1054,88468;0,01284
76,50000;2,55014;1075,87548;0,01317
78,20000;2,60626;1096,44951;0,01351
79,90000;2,66353;1117,65033;0,01384
81,60000;2,71966;1137,86720;0,01418
83,30000;2,77664;1158,41618;0,01452
85,00000;2,83276;1177,28878;0,01485
86,70000;2,89060;1199,10678;0,01520
88,40000;2,94615;1218,14869;0,01554
90,10000;3,00313;1238,17436;0,01589
91,80000;3,06011;1258,74532;0,01625
93,50000;3,11652;1277,46128;0,01660
95,20000;3,17379;1296,69737;0,01696
96,90000;3,22963;1315,68909;0,01732
98,60000;3,28689;1334,74655;0,01769
100,30000;3,34359;1353,69441;0,01805
102,00000;3,40000;1371,71783;0,01842
103,70000;3,45669;1390,72519;0,01880
105,40001;3,51339;1408,99308;0,01918
107,10001;3,57008;1426,86609;0,01955
108,80001;3,62706;1444,72355;0,01993
110,50001;3,68347;1462,16415;0,02032
112,20001;3,74045;1478,79953;0,02070
113,90001;3,79743;1495,32836;0,02109
115,60001;3,85299;1510,73849;0,02147
117,30001;3,91025;1528,15720;0,02188
119,00001;3,96695;1543,56118;0,02227
120,70001;4,02336;1558,47315;0,02267
122,40001;4,08034;1574,39411;0,02308
124,10001;4,13618;1588,86425;0,02348
125,80001;4,19401;1604,92919;0,02390
127,50001;4,25014;1618,58164;0,02431
129,20001;4,30626;1632,31846;0,02472
130,90001;4,36296;1646,47214;0,02514
132,60001;4,41994;1660,20915;0,02557
134,30001;4,47692;1673,50117;0,02600
136,00001;4,53361;1686,55496;0,02643
137,70001;4,58917;1698,19258;0,02685
139,40001;4,64786;1711,93574;0,02731
141,10001;4,70341;1722,80874;0,02774
142,80001;4,75982;1733,95742;0,02818
144,50001;4,81652;1744,84923;0,02863
146,20001;4,87350;1756,14525;0,02909
147,90001;4,93019;1766,46356;0,02955
149,60001;4,98689;1776,92920;0,03001
151,30001;5,04273;1784,97583;0,03046
153,00001;5,10028;1795,22224;0,03094
154,70001;5,15697;1805,44350;0,03142
156,40001;5,21281;1813,18298;0,03189
158,10001;5,26979;1823,53575;0,03238
159,80001;5,32677;1831,47900;0,03287
161,50001;5,38375;1838,92399;0,03336
163,20001;5,44045;1846,72326;0,03386
164,90001;5,49572;1852,83646;0,03435
166,60001;5,55384;1862,55630;0,03487
168,30001;5,60968;1867,55415;0,03538
170,00001;5,66638;1874,26601;0,03589
171,70001;5,72336;1880,16929;0,03641
173,40001;5,78005;1886,26386;0,03693
175,10001;5,83646;1891,20527;0,03745
176,80001;5,89316;1896,48196;0,03799
178,50001;5,94928;1900,00702;0,03852
180,20001;6,00683;1906,11091;0,03907
181,90001;6,06324;1910,68891;0,03961
183,60001;6,11994;1914,15772;0,04017
185,30001;6,17720;1918,49116;0,04073
187,00001;6,23333;1920,62818;0,04128
188,70001;6,29031;1925,55711;0,04185
190,40001;6,34672;1928,46488;0,04241
192,10001;6,40284;1930,24464;0,04298
193,80001;6,46039;1933,89822;0,04357
195,50001;6,51652;1935,94750;0,04415
197,20001;6,57321;1938,23166;0,04473
198,90001;6,63076;1940,25598;0,04533
200,60001;6,68660;1942,17674;0,04591
202,30001;6,74358;1943,49904;0,04650
204,00001;6,79942;1944,13513;0,04710
205,70001;6,85697;1945,72378;0,04771
207,40001;6,91367;1946,47573;0,04831
209,10001;6,96979;1947,26549;0,04892
210,80001;7,02706;1948,00794;0,04953
212,50001;7,08375;1948,72878;0,05015
214,10801;7,13674;1948,67235;0,05073
215,80801;7,19372;1950,31743;0,05136
217,50801;7,25013;1949,99464;0,05198
219,20801;7,30683;1949,51203;0,05261
220,90801;7,36438;1950,75292;0,05325
222,60801;7,42022;1949,86612;0,05388
224,30801;7,47634;1948,93237;0,05451
226,00801;7,53418;1949,81601;0,05516
227,70801;7,59002;1949,12981;0,05580
229,40801;7,64729;1949,61540;0,05645
231,10801;7,70313;1947,68533;0,05709
232,80801;7,76068;1947,50670;0,05774
234,50801;7,81680;1945,94935;0,05838
236,20801;7,87350;1946,09351;0,05904
237,90801;7,92934;1944,54864;0,05968
239,60801;7,98689;1944,42645;0,06035
241,30801;8,04301;1942,24566;0,06101
243,00801;8,10028;1942,71561;0,06168
244,70801;8,15640;1941,32440;0,06233
246,40801;8,21338;1941,35271;0,06300
248,10801;8,27065;1939,94883;0,06367
249,80801;8,32620;1938,07818;0,06432
251,50801;8,38318;1937,83380;0,06500
253,20801;8,44045;1936,38615;0,06568
254,90801;8,49629;1935,79402;0,06635
256,60801;8,55384;1935,14526;0,06703
258,30801;8,60996;1933,81365;0,06771
260,00801;8,66723;1932,55711;0,06838
261,70801;8,72335;1929,90620;0,06905
263,40801;8,77976;1928,58391;0,06973
265,10801;8,83674;1928,48686;0,07042
266,80801;8,89372;1926,89504;0,07110
268,50801;8,94985;1923,87123;0,07178
270,20801;9,00683;1924,15956;0,07247
271,90801;9,06352;1922,82163;0,07315
273,60801;9,12050;1922,00057;0,07384
275,30801;9,17691;1920,47153;0,07453
277,00801;9,23304;1917,71407;0,07521
278,70801;9,29059;1918,27174;0,07591
280,40801;9,34728;1916,14106;0,07661
282,10801;9,40341;1914,87204;0,07729
283,80801;9,46067;1914,46785;0,07800
285,50801;9,51708;1912,87920;0,07869
287,20801;9,57349;1911,29372;0,07939
288,90801;9,63047;1910,63248;0,08009
290,60801;9,68631;1908,11325;0,08078
292,30801;9,74415;1907,03217;0,08149
294,00801;9,79999;1905,47798;0,08218
295,70801;9,85725;1904,37827;0,08287
297,40801;9,91366;1903,16550;0,08357
299,10801;9,97036;1901,62398;0,08427
300,80801;10,02705;1900,68390;0,08497
302,50801;10,08347;1898,81641;0,08567
304,20801;10,13959;1897,55056;0,08637
305,90801;10,19742;1896,97072;0,08708
307,60801;10,25383;1895,87418;0,08779
309,30801;10,31024;1893,75896;0,08849
311,00801;10,36665;1893,00384;0,08919
312,70801;10,42335;1891,77245;0,08990
314,40801;10,48033;1892,21427;0,09061
316,10802;10,53703;1891,08942;0,09132
317,80802;10,59287;1888,02797;0,09202
319,50802;10,65099;1889,29699;0,09274
321,20802;10,70654;1885,81571;0,09343
322,90802;10,76381;1885,33012;0,09414
324,60802;10,81965;1883,51907;0,09484
326,30802;10,87691;1883,91376;0,09556
328,00802;10,93361;1882,55385;0,09627
329,70802;10,98973;1881,41335;0,09698
331,40802;11,04614;1879,13217;0,09768
333,10802;11,10398;1879,23871;0,09840
334,80802;11,16010;1877,97919;0,09911
336,50802;11,21651;1876,45629;0,09982
338,20802;11,27321;1876,30896;0,10053
339,90802;11,32990;1875,27500;0,10125
341,60802;11,38660;1874,47909;0,10196
343,30802;11,44329;1873,36989;0,10268
345,00802;11,49999;1872,54269;0,10339
346,70802;11,55725;1871,88461;0,10411
348,40802;11,61309;1869,93554;0,10482
350,10802;11,67036;1870,53103;0,10554
351,80802;11,72705;1869,44995;0,10625
353,50802;11,78318;1867,71080;0,10696
355,20802;11,84073;1867,39434;0,10768
356,90802;11,89657;1866,68616;0,10839
358,60802;11,95355;1866,03758;0,10910
360,30802;12,01081;1865,71181;0,10982
362,00802;12,06637;1863,10783;0,11052
363,70802;12,12363;1863,75640;0,11125
365,40802;12,18004;1863,37102;0,11196
367,10802;12,23674;1862,95118;0,11268
368,80802;12,29343;1862,25548;0,11340
370,50802;12,35013;1862,08952;0,11412
372,20802;12,40711;1861,67900;0,11484
373,90802;12,46409;1860,78921;0,11556
375,60802;12,52021;1860,24383;0,11628
377,30802;12,57691;1859,85528;0,11700
379,00802;12,63389;1859,83032;0,11772
380,70802;12,69001;1857,74658;0,11843
382,40802;12,74728;1857,80618;0,11916
384,10802;12,80283;1855,74740;0,11986
385,80802;12,86067;1857,07919;0,12059
387,50802;12,91679;1855,56263;0,12130
389,20802;12,97321;1854,38748;0,12202
390,90802;13,03019;1855,28379;0,12274
392,60802;13,08688;1853,40997;0,12346
394,30802;13,14386;1853,55712;0,12418
396,00802;13,20056;1853,55712;0,12490
397,70802;13,25611;1852,48870;0,12561
399,40802;13,31423;1852,73625;0,12634
401,10802;13,37036;1852,62021;0,12706
402,80802;13,42677;1851,73657;0,12778
404,50802;13,48318;1850,85926;0,12851
406,20802;13,54016;1851,90588;0,12923
407,90802;13,59685;1851,44525;0,12996
409,60802;13,65383;1850,58042;0,13068
411,30802;13,70967;1848,99177;0,13139
413,00802;13,76694;1850,16375;0,13212
414,70802;13,82363;1848,94484;0,13284
416,40802;13,87976;1848,55945;0,13355
418,10802;13,93674;1847,96397;0,13428
419,80802;13,99343;1847,74790;0,13500
421,50802;14,05041;1847,48769;0,13572
423,20802;14,10739;1847,52215;0,13646
424,90802;14,16238;1846,22183;0,13716
426,60802;14,22050;1847,03972;0,13790
428,30802;14,27605;1845,03421;0,13861
430,00802;14,33332;1845,72041;0,13934
431,70802;14,39001;1845,23482;0,14007
433,40802;14,44671;1845,24413;0,14078
434,73602;14,49115;1094,66035;0,14432