File: 02_Appendices/Appendix_C_Experimental_Data_and_Analysis Reports/C_1_Materials_Tests/C_1_1_Tensile_tests/C_1_1_3_Smooth Comum/Specimen_RawData_4.csv
Text Inputs : Specimen label;"1"
Dimension : Length;50,00000;mm
Dimension : Final length;100,00000;mm
Test : Rate 1;2,00000;mm/min
General : Unique Identifier;"{52134FE5-1066-4B6D-821D-409424F962F6}"

Time;Extension;Load;Strain 1
(sec);(mm);(N);(mm/mm)
0,00000;0,00000;28,14633;0,00028
0,60000;0,01926;35,66968;0,00033
1,20000;0,03994;54,35116;0,00048
1,80000;0,06003;64,82621;0,00058
2,40000;0,08003;67,50842;0,00062
3,00000;0,10006;68,27611;0,00064
3,60000;0,11997;70,12796;0,00066
4,20000;0,14003;69,52321;0,00068
4,80000;0,16000;71,19332;0,00070
5,40000;0,17997;72,60650;0,00071
6,00000;0,19997;71,70407;0,00072
6,60000;0,21991;72,10829;0,00073
7,20000;0,24003;72,49370;0,00073
7,80000;0,26003;72,65350;0,00074
8,40000;0,28003;73,41492;0,00075
9,00000;0,30006;73,64367;0,00075
9,60000;0,32000;75,17592;0,00076
10,20000;0,34000;75,43286;0,00078
10,80000;0,36003;77,98346;0,00080
11,40000;0,38006;81,93784;0,00082
12,00000;0,39997;87,90701;0,00087
12,60000;0,41991;96,14479;0,00093
13,20000;0,44000;106,84858;0,00102
13,80000;0,46003;118,45165;0,00112
14,40000;0,48003;129,84165;0,00122
15,00000;0,50006;142,97697;0,00133
15,60000;0,52003;155,40414;0,00144
16,20000;0,54003;166,93828;0,00155
16,80000;0,56000;178,42855;0,00166
17,40000;0,58000;190,93718;0,00178
18,00000;0,59997;202,21125;0,00189
18,60000;0,61994;216,20512;0,00201
19,20000;0,63997;227,35386;0,00213
19,80000;0,66003;239,82488;0,00225
20,40000;0,68003;252,51526;0,00238
21,00000;0,70003;263,98359;0,00250
21,60000;0,72006;276,46404;0,00262
22,20000;0,74000;287,94489;0,00274
22,80000;0,76003;298,72388;0,00287
23,40000;0,78000;311,19180;0,00299
24,00000;0,79997;322,69459;0,00311
24,60000;0,81994;334,16294;0,00323
25,20000;0,83994;345,38372;0,00335
25,80000;0,86003;355,42010;0,00347
26,40000;0,88003;366,64088;0,00359
27,00000;0,90006;377,37601;0,00370
27,60000;0,92003;388,47772;0,00382
28,20000;0,94000;398,49840;0,00394
28,80000;0,96003;408,71650;0,00406
29,40000;0,97997;419,70857;0,00417
30,00000;0,99997;429,48173;0,00429
30,60000;1,01991;440,47376;0,00440
31,20000;1,03994;450,00878;0,00451
31,80000;1,06006;460,01696;0,00463
32,40000;1,08003;469,42350;0,00474
33,00000;1,10008;480,52524;0,00486
33,60000;1,11997;489,28629;0,00497
34,20000;1,14000;498,95602;0,00509
34,80000;1,16000;508,54119;0,00520
35,40000;1,17997;518,34881;0,00531
36,00000;1,20000;527,92458;0,00543
36,60000;1,21991;537,67576;0,00554
37,20000;1,24000;547,35178;0,00565
37,80000;1,26003;556,96513;0,00577
38,40000;1,28003;566,41558;0,00588
39,00000;1,30008;576,95014;0,00600
39,60000;1,32000;586,56349;0,00611
40,20000;1,34003;595,97003;0,00622
40,80000;1,36000;605,07264;0,00634
41,40000;1,38003;614,11881;0,00645
42,00000;1,39994;624,97617;0,00658
42,60000;1,41991;634,80572;0,00670
43,20000;1,44000;644,55378;0,00682
43,80000;1,46003;653,74100;0,00694
44,40000;1,48006;662,70572;0,00705
45,00000;1,50003;670,90592;0,00715
45,60000;1,52003;678,63292;0,00726
46,20000;1,54003;686,12495;0,00736
46,80000;1,56000;693,78302;0,00747
47,40000;1,58003;701,56646;0,00757
48,00000;1,59997;709,78231;0,00768
48,60000;1,61991;717,37459;0,00778
49,20000;1,63997;724,88855;0,00789
49,80000;1,66006;732,78793;0,00800
50,40000;1,68006;740,85025;0,00810
51,00000;1,70003;748,18558;0,00821
51,60000;1,72003;756,50797;0,00832
52,20000;1,74000;763,83078;0,00842
52,80000;1,76000;771,78339;0,00853
53,40000;1,78000;779,40389;0,00864
54,00000;1,80000;788,01457;0,00874
54,60000;1,81994;795,52224;0,00885
55,20000;1,83994;802,83880;0,00895
55,80000;1,86005;810,20230;0,00906
56,40000;1,88000;817,60036;0,00917
57,00000;1,90003;825,86948;0,00927
57,60000;1,92000;834,20752;0,00938
58,20000;1,94000;841,14494;0,00949
58,80000;1,96005;848,00087;0,00959
59,40000;1,97994;855,49597;0,00970
60,00000;2,00000;863,51754;0,00980
60,60000;2,01991;871,06284;0,00991
61,20000;2,03997;878,44515;0,01002
61,80000;2,06005;885,56437;0,01013
62,40000;2,08003;893,20680;0,01024
63,00000;2,10008;900,27265;0,01034
63,60000;2,11997;908,10303;0,01045
64,20000;2,14000;914,25395;0,01056
64,80000;2,16003;922,62020;0,01066
65,40000;2,17997;930,08718;0,01077
66,00000;2,19997;936,97757;0,01088
66,60000;2,21991;943,69566;0,01099
67,20000;2,24003;950,92133;0,01110
67,80000;2,26000;958,11877;0,01120
68,40000;2,28003;965,45098;0,01131
69,00000;2,30005;972,46049;0,01142
69,60000;2,31997;980,56979;0,01153
70,20000;2,34005;986,82102;0,01164
70,80000;2,36000;994,20957;0,01175
71,40000;2,38003;1001,86458;0,01186
72,00000;2,39997;1009,45998;0,01197
72,60000;2,41991;1016,62297;0,01208
73,20000;2,44000;1023,76090;0,01219
73,80000;2,46003;1029,84291;0,01230
74,40000;2,48003;1037,28790;0,01241
75,00000;2,50003;1045,07767;0,01253
75,60000;2,52005;1051,46980;0,01264
76,20000;2,54003;1058,98064;0,01275
76,80000;2,56000;1066,14055;0,01286
77,40000;2,58000;1073,71090;0,01297
78,00000;2,59997;1080,32553;0,01309
78,60000;2,61991;1087,22225;0,01320
79,20000;2,63997;1093,86509;0,01331
79,80000;2,66003;1100,69597;0,01342
80,40000;2,68003;1108,25058;0,01354
81,00000;2,70003;1114,57072;0,01365
81,60000;2,72003;1121,77767;0,01377
82,20000;2,74000;1127,57757;0,01388
82,80000;2,76003;1134,80641;0,01400
83,40000;2,78000;1142,36111;0,01411
84,00000;2,79997;1148,74700;0,01423
84,60000;2,81997;1155,94454;0,01434
85,20000;2,83994;1162,50589;0,01446
85,80000;2,86003;1168,74455;0,01458
86,40000;2,88003;1176,45590;0,01470
87,00000;2,90005;1183,25539;0,01481
87,60000;2,92000;1190,28054;0,01493
88,20000;2,94000;1196,49414;0,01504
88,80000;2,96003;1203,36888;0,01517
89,40000;2,97994;1209,72032;0,01528
90,00000;3,00000;1217,65109;0,01540
90,60000;3,01991;1223,48862;0,01552
91,20000;3,03994;1229,65211;0,01564
91,80000;3,06005;1236,37635;0,01576
92,40000;3,08002;1242,76858;0,01588
93,00000;3,10011;1249,96603;0,01600
93,60000;3,11997;1257,08524;0,01612
94,20000;3,14000;1263,30508;0,01624
94,80000;3,16000;1269,75365;0,01636
95,40000;3,17994;1276,17400;0,01648
96,00000;3,20000;1282,77615;0,01660
96,60000;3,21991;1289,24353;0,01672
97,20000;3,24002;1295,42584;0,01685
97,80000;3,26002;1302,09057;0,01697
98,40000;3,28000;1308,21643;0,01710
99,00000;3,30008;1314,64619;0,01722
99,60000;3,31997;1321,53668;0,01734
100,20000;3,34000;1326,57206;0,01746
100,80000;3,36000;1332,97676;0,01758
101,40000;3,38002;1339,12768;0,01771
102,00000;3,39994;1345,42901;0,01783
102,60000;3,41991;1351,92145;0,01795
103,20000;3,44000;1357,55222;0,01808
103,80000;3,46002;1363,85355;0,01821
104,40000;3,48008;1370,25518;0,01833
105,00000;3,50002;1376,54077;0,01846
105,60001;3,52002;1382,66347;0,01859
106,20001;3,54002;1387,23515;0,01871
106,80001;3,56000;1394,86510;0,01884
107,40001;3,58002;1400,57104;0,01897
108,00001;3,60000;1406,70314;0,01910
108,60001;3,61991;1413,57165;0,01923
109,20001;3,63994;1419,07390;0,01936
109,80001;3,66005;1424,62011;0,01949
110,40001;3,68005;1430,49527;0,01962
111,00001;3,70002;1436,81541;0,01975
111,60001;3,72002;1442,85662;0,01989
112,20001;3,74000;1448,26490;0,02002
112,80001;3,76000;1454,58812;0,02016
113,40001;3,78000;1459,92441;0,02029
114,00001;3,80000;1466,54844;0,02043
114,60001;3,81991;1472,15417;0,02056
115,20001;3,83994;1478,10765;0,02070
115,80001;3,86005;1484,24292;0,02083
116,40001;3,88000;1490,20897;0,02097
117,00001;3,90005;1494,24169;0,02111
117,60001;3,92000;1501,10386;0,02124
118,20001;3,94000;1507,04170;0,02138
118,80001;3,96005;1511,98311;0,02152
119,40001;3,97997;1518,28127;0,02165
120,00001;3,99994;1524,16900;0,02179
120,60001;4,01991;1529,11358;0,02193
121,20001;4,03994;1534,25233;0,02207
121,80001;4,06008;1540,34691;0,02221
122,40001;4,08002;1545,84292;0,02236
123,00001;4,10008;1550,77493;0,02250
123,60001;4,11997;1556,70019;0,02264
124,20001;4,14000;1561,48812;0,02279
124,80001;4,15999;1567,79252;0,02293
125,40001;4,17997;1572,32657;0,02308
126,00001;4,20000;1577,50919;0,02322
126,60001;4,21991;1582,99897;0,02336
127,20001;4,24005;1588,51389;0,02351
127,80001;4,26000;1593,91910;0,02365
128,40001;4,28002;1599,05776;0,02380
129,00001;4,30005;1604,40654;0,02394
129,60001;4,31997;1609,33230;0,02409
130,20001;4,33999;1614,74068;0,02424
130,80001;4,35997;1619,10541;0,02439
131,40001;4,38002;1624,61717;0,02454
132,00001;4,39994;1629,65581;0,02468
132,60001;4,41991;1634,14907;0,02483
133,20001;4,43999;1639,18454;0,02498
133,80001;4,46002;1643,55561;0,02514
134,40001;4,48002;1648,73507;0,02529
135,00001;4,50002;1653,63587;0,02544
135,60001;4,52005;1659,07852;0,02559
136,20001;4,54002;1663,34007;0,02574
136,80001;4,55999;1667,58895;0,02589
137,40001;4,58002;1672,33925;0,02605
138,00001;4,59997;1677,74130;0,02620
138,60001;4,61994;1682,04661;0,02636
139,20001;4,63997;1687,38291;0,02651
139,80001;4,66005;1690,87667;0,02667
140,40001;4,68005;1696,12821;0,02682
141,00001;4,70005;1699,98556;0,02698
141,60001;4,72002;1705,28088;0,02714
142,20001;4,73999;1708,79662;0,02730
142,80001;4,75999;1713,10510;0,02745
143,40001;4,77999;1717,02821;0,02761
144,00001;4,79997;1721,73455;0,02777
144,60001;4,81997;1726,53180;0,02794
145,20001;4,83994;1730,24815;0,02810
145,80001;4,86002;1734,57842;0,02826
146,40001;4,88002;1738,81482;0,02842
147,00001;4,90005;1743,11083;0,02858
147,60001;4,92002;1747,12464;0,02875
148,20001;4,94002;1751,73711;0,02891
148,80001;4,96005;1755,38138;0,02908
149,40001;4,97994;1758,87812;0,02924
150,00001;5,00002;1763,47494;0,02941
150,60001;5,01991;1767,71451;0,02958
151,20001;5,03994;1771,74713;0,02974
151,80001;5,06008;1774,71135;0,02991
152,40001;5,08002;1778,89131;0,03008
153,00001;5,10008;1782,37259;0,03025
153,60001;5,11997;1786,95675;0,03042
154,20001;5,13999;1790,70756;0,03059
154,80001;5,15999;1794,21697;0,03076
155,40001;5,17997;1797,52894;0,03093
156,00001;5,20002;1801,28291;0,03111
156,60001;5,21991;1805,57258;0,03128
157,20001;5,24002;1809,47371;0,03145
157,80001;5,25999;1813,18987;0,03163
158,40001;5,28002;1816,11329;0,03180
159,00001;5,30008;1819,75123;0,03198
159,60001;5,31999;1824,26646;0,03216
160,20001;5,33999;1826,83282;0,03233
160,80001;5,35999;1831,35439;0,03251
161,40001;5,38005;1833,44427;0,03269
162,00001;5,39994;1837,43313;0,03287
162,60001;5,41991;1839,74877;0,03304
163,20001;5,43999;1843,82536;0,03322
163,72201;5,45746;1539,81736;0,02572
163,73001;5,45771;1102,71070;0,01411