File: 02_Appendices/Appendix_C_Experimental_Data_and_Analysis Reports/C_1_Materials_Tests/C_1_1_Tensile_tests/C_1_1_3_Smooth Comum/Specimen_RawData_3.csv
Text Inputs : Specimen label;"1"
Dimension : Length;50,00000;mm
Dimension : Final length;100,00000;mm
Test : Rate 1;2,00000;mm/min
General : Unique Identifier;"{288E8DE0-B442-4EAD-A251-CCDBB823139B}"

Time;Extension;Load;Strain 1
(sec);(mm);(N);(mm/mm)
0,00000;0,00000;-1,90374;-0,00003
0,50000;0,01573;3,06588;0,00000
1,00000;0,03325;21,77556;0,00013
1,50000;0,05006;37,98477;0,00026
2,00000;0,06658;49,71318;0,00036
2,50000;0,08336;52,31393;0,00041
3,00000;0,10003;53,98091;0,00044
3,50000;0,11667;56,35291;0,00046
4,00000;0,13325;56,54405;0,00048
4,50000;0,15006;56,95140;0,00050
5,00000;0,16667;58,83458;0,00052
5,50000;0,18336;59,09465;0,00053
6,00000;0,19997;60,09422;0,00054
6,50000;0,21661;60,47963;0,00055
7,00000;0,23339;61,18151;0,00056
7,50000;0,25006;61,77374;0,00057
8,00000;0,26658;62,25628;0,00058
8,50000;0,28339;62,06514;0,00058
9,00000;0,30003;63,87626;0,00059
9,50000;0,31667;64,00787;0,00059
10,00000;0,33328;64,54368;0,00060
10,50000;0,35006;66,94389;0,00061
11,00000;0,36667;67,76798;0,00062
11,50000;0,38339;71,49049;0,00064
12,00000;0,39994;76,32537;0,00066
12,50000;0,41667;80,74036;0,00069
13,00000;0,43336;90,15317;0,00075
13,50000;0,45003;98,87976;0,00081
14,00000;0,46661;108,17037;0,00088
14,50000;0,48336;118,41040;0,00095
15,00000;0,50003;130,07928;0,00104
15,50000;0,51669;140,48539;0,00113
16,00000;0,53330;152,02892;0,00122
16,50000;0,55003;162,77031;0,00131
17,00000;0,56667;172,48706;0,00140
17,50000;0,58339;183,28798;0,00149
18,00000;0,59994;194,50565;0,00158
18,50000;0,61667;205,12168;0,00168
19,00000;0,63336;216,70284;0,00178
19,50000;0,65003;228,84172;0,00188
20,00000;0,66664;239,91524;0,00199
20,50000;0,68336;251,73451;0,00209
21,00000;0,70003;263,61961;0,00220
21,50000;0,71669;274,18865;0,00231
22,00000;0,73328;285,64131;0,00242
22,50000;0,75006;297,70813;0,00253
23,00000;0,76669;308,48400;0,00264
23,50000;0,78336;318,77104;0,00274
24,00000;0,79997;330,47437;0,00285
24,50000;0,81669;341,31289;0,00296
25,00000;0,83333;352,49610;0,00307
25,50000;0,85006;364,78539;0,00317
26,00000;0,86658;374,43948;0,00328
26,50000;0,88333;385,04298;0,00339
27,00000;0,90006;395,46788;0,00350
27,50000;0,91669;405,90530;0,00360
28,00000;0,93322;416,55898;0,00371
28,50000;0,95008;425,95924;0,00382
29,00000;0,96669;436,66931;0,00393
29,50000;0,98333;447,04718;0,00403
30,00000;1,00000;456,06205;0,00413
30,50000;1,01667;467,19201;0,00424
31,00000;1,03333;476,24446;0,00434
31,50000;1,05006;486,14293;0,00445
32,00000;1,06661;496,84048;0,00455
32,50000;1,08336;505,75817;0,00466
33,00000;1,10008;515,97003;0,00476
33,50000;1,11664;525,71185;0,00487
34,00000;1,13325;534,39769;0,00497
34,50000;1,15006;544,13010;0,00507
35,00000;1,16667;553,60561;0,00517
35,50000;1,18339;563,38189;0,00527
36,00000;1,20000;572,09595;0,00538
36,50000;1,21664;581,09830;0,00548
37,00000;1,23336;590,06927;0,00558
37,50000;1,25003;598,66114;0,00568
38,00000;1,26655;607,16211;0,00578
38,50000;1,28339;616,13000;0,00588
39,00000;1,30008;624,30194;0,00598
39,50000;1,31667;633,55183;0,00608
40,00000;1,33325;641,80838;0,00617
40,50000;1,35006;648,62045;0,00626
41,00000;1,36667;656,34437;0,00635
41,50000;1,38345;663,69539;0,00644
42,00000;1,39994;670,27872;0,00653
42,50000;1,41664;677,60465;0,00661
43,00000;1,43333;684,36661;0,00670
43,50000;1,45003;692,14064;0,00678
44,00000;1,46658;698,91196;0,00687
44,50000;1,48339;706,86457;0,00696
45,00000;1,50003;712,89330;0,00705
45,50000;1,51672;720,96498;0,00713
46,00000;1,53327;727,69560;0,00722
46,50000;1,55000;735,18134;0,00730
47,00000;1,56669;741,55475;0,00739
47,50000;1,58342;748,86815;0,00748
48,00000;1,59994;755,34182;0,00756
48,50000;1,61669;762,83696;0,00765
49,00000;1,63333;768,73405;0,00774
49,50000;1,65003;777,18492;0,00782
50,00000;1,66664;783,82464;0,00792
50,50000;1,68336;792,05930;0,00801
51,00000;1,70003;799,02178;0,00810
51,50000;1,71666;806,48558;0,00819
52,00000;1,73327;813,15031;0,00828
52,50000;1,75003;821,62628;0,00837
53,00000;1,76669;828,08109;0,00846
53,50000;1,78333;836,14653;0,00856
54,00000;1,79997;843,08088;0,00865
54,50000;1,81669;851,14939;0,00874
55,00000;1,83330;857,25021;0,00883
55,50000;1,85005;864,50409;0,00892
56,00000;1,86664;871,64510;0,00901
56,50000;1,88336;877,91514;0,00910
57,00000;1,90003;885,03109;0,00919
57,50000;1,91666;892,68610;0,00928
58,00000;1,93325;899,16289;0,00937
58,50000;1,95008;905,83712;0,00946
59,00000;1,96669;913,22567;0,00956
59,50000;1,98336;919,22618;0,00965
60,00000;1,99997;926,63988;0,00974
60,50000;2,01666;932,64664;0,00983
61,00000;2,03330;939,74387;0,00991
61,50000;2,05005;945,19295;0,01000
62,00000;2,06658;951,95798;0,01009
62,50000;2,08336;958,38467;0,01018
63,00000;2,10008;964,85205;0,01026
63,50000;2,11666;970,90583;0,01035
64,00000;2,13325;977,61136;0,01043
64,50000;2,15005;983,50532;0,01052
65,00000;2,16666;989,86300;0,01061
65,50000;2,18336;995,91054;0,01070
66,00000;2,19997;1003,12373;0,01079
66,50000;2,21664;1009,34980;0,01088
67,00000;2,23336;1015,25942;0,01097
67,50000;2,25008;1021,33825;0,01105
68,00000;2,26658;1028,11586;0,01114
68,50000;2,28336;1034,25113;0,01123
69,00000;2,30005;1041,01617;0,01132
69,50000;2,31666;1046,98539;0,01141
70,00000;2,33325;1052,82292;0,01149
70,50000;2,35005;1058,62292;0,01158
71,00000;2,36666;1065,31903;0,01167
71,50000;2,38339;1071,13784;0,01176
72,00000;2,39994;1077,64285;0,01185
72,50000;2,41664;1083,79060;0,01194
73,00000;2,43336;1089,68774;0,01203
73,50000;2,45003;1095,44694;0,01212
74,00000;2,46661;1102,13049;0,01221
74,50000;2,48336;1107,89286;0,01230
75,00000;2,50003;1113,94357;0,01239
75,50000;2,51669;1120,09132;0,01248
76,00000;2,53327;1126,02599;0,01257
76,50000;2,55003;1132,28662;0,01266
77,00000;2,56666;1138,05840;0,01275
77,50000;2,58339;1143,73304;0,01284
78,00000;2,59994;1150,47926;0,01293
78,50000;2,61666;1156,18529;0,01302
79,00000;2,63336;1162,37067;0,01311
79,50000;2,65005;1168,24582;0,01320
80,00000;2,66664;1174,77588;0,01330
80,50000;2,68336;1179,98989;0,01339
81,00000;2,70003;1186,30370;0,01348
81,50000;2,71672;1192,30114;0,01357
82,00000;2,73324;1197,95697;0,01366
82,50000;2,75003;1203,47179;0,01376
83,00000;2,76669;1210,28386;0,01385
83,50000;2,78336;1216,16842;0,01394
84,00000;2,79997;1220,99388;0,01403
84,50000;2,81669;1227,61484;0,01413
85,00000;2,83330;1233,76260;0,01422
85,50000;2,85003;1239,71608;0,01432
86,00000;2,86661;1245,80124;0,01441
86,50000;2,88333;1250,94634;0,01450
87,00000;2,90005;1256,55206;0,01460
87,50000;2,91669;1263,34531;0,01469
88,00000;2,93324;1268,40267;0,01478
88,50000;2,95005;1274,38745;0,01488
89,00000;2,96669;1280,64184;0,01498
89,50000;2,98333;1285,60197;0,01507
90,00000;3,00000;1291,92527;0,01517
90,50000;3,01666;1298,43969;0,01526
91,00000;3,03333;1303,02701;0,01536
91,50000;3,05005;1308,54184;0,01545
92,00000;3,06661;1314,82435;0,01555
92,50000;3,08336;1320,20758;0,01565
93,00000;3,10008;1325,75063;0,01575
93,50000;3,11666;1331,60073;0,01584
94,00000;3,13322;1336,90247;0,01594
94,50000;3,15005;1342,48305;0,01604
95,00000;3,16666;1348,63397;0,01614
95,50000;3,18336;1353,54716;0,01624
96,00000;3,20000;1360,02395;0,01633
96,50000;3,21663;1365,42600;0,01643
97,00000;3,23336;1370,96280;0,01653
97,50000;3,25005;1376,18622;0,01663
98,00000;3,26658;1381,99870;0,01673
98,50000;3,28336;1387,55115;0,01683
99,00000;3,30005;1393,34481;0,01693
99,50000;3,31666;1397,92589;0,01703
100,00000;3,33324;1404,11751;0,01714
100,50000;3,35002;1409,63243;0,01724
101,00000;3,36669;1415,30074;0,01734
101,50000;3,38341;1419,88806;0,01744
102,00000;3,39991;1425,52825;0,01754
102,50000;3,41666;1430,97416;0,01764
103,00000;3,43336;1436,58295;0,01775
103,50000;3,45005;1442,30779;0,01785
104,00000;3,46658;1447,34941;0,01796
104,50000;3,48339;1452,72948;0,01806
105,00000;3,50002;1458,50759;0,01816
105,50001;3,51669;1463,47713;0,01827
106,00001;3,53327;1468,59717;0,01837
106,50001;3,55002;1473,88643;0,01847
107,00001;3,56669;1479,51404;0,01858
107,50001;3,58339;1483,97600;0,01868
108,00001;3,59997;1489,80739;0,01878
108,50001;3,61663;1495,23756;0,01889
109,00001;3,63336;1500,94666;0,01900
109,50001;3,65005;1506,22334;0,01910
110,00001;3,66663;1511,39665;0,01921
110,50001;3,68336;1515,67375;0,01932
111,00001;3,70000;1521,87487;0,01942
111,50001;3,71666;1526,45586;0,01953
112,00001;3,73327;1531,70750;0,01964
112,50001;3,75005;1536,94656;0,01975
113,00001;3,76669;1541,56210;0,01986
113,50001;3,78333;1546,80125;0,01997
114,00001;3,80000;1552,04348;0,02007
114,50001;3,81669;1557,46741;0,02018
115,00001;3,83330;1561,71005;0,02029
115,50001;3,85005;1567,01170;0,02041
116,00001;3,86661;1571,99390;0,02052
116,50001;3,88336;1577,25178;0,02063
117,00001;3,90005;1582,49084;0,02074
117,50001;3,91666;1587,17856;0,02085
118,00001;3,93324;1592,31741;0,02097
118,50001;3,95008;1596,92653;0,02108
119,00001;3,96669;1602,54799;0,02119
119,50001;3,98333;1606,83133;0,02131
120,00001;3,99994;1611,43113;0,02142
120,50001;4,01669;1616,29114;0,02153
121,00001;4,03333;1621,26385;0,02165
121,50001;4,05005;1626,35576;0,02176
122,00001;4,06660;1630,76762;0,02188
122,50001;4,08336;1635,71518;0,02199
123,00001;4,10005;1640,55321;0,02211
123,50001;4,11666;1645,33798;0,02222
124,00001;4,13321;1649,53675;0,02233
124,50001;4,15008;1654,57539;0,02245
125,00001;4,16666;1659,61068;0,02257
125,50001;4,18333;1664,12611;0,02269
126,00001;4,19997;1668,76353;0,02281
126,50001;4,21663;1672,66466;0,02292
127,00001;4,23336;1678,13562;0,02304
127,50001;4,25005;1682,58511;0,02316
128,00001;4,26658;1686,61159;0,02328
128,50001;4,28339;1691,34606;0,02340
129,00001;4,30005;1696,58829;0,02352
129,50001;4,31666;1699,73746;0,02364
130,00001;4,33324;1704,82919;0,02376
130,50001;4,35005;1708,78042;0,02388
131,00001;4,36666;1714,34544;0,02400
131,50001;4,38339;1717,56353;0,02412
132,00001;4,39997;1721,83756;0,02424
132,50001;4,41660;1725,87335;0,02437
133,00001;4,43336;1730,62980;0,02449
133,50001;4,45002;1734,71272;0,02461
134,00001;4,46660;1738,56057;0,02473
134,50001;4,48336;1743,41425;0,02486
135,00001;4,50005;1747,50965;0,02498
135,50001;4,51672;1751,42642;0,02511
136,00001;4,53330;1755,53430;0,02523
136,50001;4,55002;1759,34136;0,02536
137,00001;4,56666;1763,77520;0,02548
137,50001;4,58336;1767,41630;0,02561
137,93801;4,59786;1497,71608;0,02728
137,94801;4,59820;976,96586;0,03011