File: 02_Appendices/Appendix_C_Experimental_Data_and_Analysis Reports/C_1_Materials_Tests/C_1_1_Tensile_tests/C_1_1_2_Quanton Iron/Specimen_RawData_5.csv
Text Inputs : Specimen label;"1"
Dimension : Length;50,00000;mm
Dimension : Final length;100,00000;mm
Test : Rate 1;4,00000;mm/min
General : Unique Identifier;"{E6395B63-AC7F-46B0-85C9-272B49926A5C}"

Time;Extension;Load;Strain 1
(sec);(mm);(N);(mm/mm)
0,00000;0,00000;7,57821;0,00002
2,40000;0,16000;79,02344;0,00092
4,80000;0,32003;84,92369;0,00110
7,20000;0,47994;100,60021;0,00130
9,60000;0,63997;178,47210;0,00224
12,00000;0,80003;251,71279;0,00324
14,40000;0,96006;326,85234;0,00431
16,80000;1,12003;398,18478;0,00538
19,20000;1,27997;465,04266;0,00642
21,60000;1,44000;526,78995;0,00741
24,00000;1,60000;581,52773;0,00836
26,40000;1,76000;632,01664;0,00924
28,80000;1,92000;681,05473;0,01012
31,20000;2,07997;728,31935;0,01099
33,60000;2,24000;774,11751;0,01185
36,00000;2,40005;817,66900;0,01272
38,40000;2,56000;861,63087;0,01358
40,80000;2,72000;903,57494;0,01447
43,20000;2,88000;946,86635;0,01536
45,60000;3,03997;988,92637;0,01628
48,00000;3,19997;1029,53864;0,01721
50,40000;3,36005;1070,67423;0,01818
52,80000;3,52000;1110,54713;0,01916
55,20000;3,68000;1149,85909;0,02017
57,60000;3,84000;1187,20951;0,02120
60,00000;3,99997;1223,29406;0,02224
62,40000;4,16002;1258,52628;0,02331
64,80000;4,32002;1291,07311;0,02441
67,20000;4,47999;1322,66125;0,02552
69,60000;4,63997;1352,75461;0,02667
72,00000;4,79999;1380,62332;0,02783
74,40000;4,96005;1405,67189;0,02903
76,80000;5,12002;1429,31677;0,03025
79,20000;5,27997;1451,15051;0,03149
81,60000;5,43999;1470,06698;0,03278
84,00000;5,59999;1487,57659;0,03407
86,40000;5,76002;1502,00594;0,03541
88,80000;5,92002;1515,00655;0,03677
91,20000;6,07996;1525,17138;0,03816
93,60000;6,23999;1533,79766;0,03957
96,00000;6,40005;1539,29060;0,04100
98,40000;6,56002;1544,14112;0,04245
100,80000;6,71999;1546,85779;0,04392
103,20000;6,87999;1548,08611;0,04542
105,60001;7,03996;1547,93886;0,04693
108,00001;7,19999;1545,98365;0,04845
110,40001;7,36005;1543,32956;0,04998
112,64801;7,50974;1540,60349;0,05143
115,04801;7,66976;1536,25747;0,05298
117,44801;7,82979;1530,67373;0,05454
119,84801;7,98971;1524,67946;0,05610
122,24801;8,14971;1517,80155;0,05767
124,64801;8,30973;1512,47792;0,05924
127,04801;8,46973;1505,23344;0,06082
129,44801;8,62973;1498,07353;0,06240
131,84801;8,78973;1490,18979;0,06397
134,24801;8,94970;1482,61320;0,06555
136,64801;9,10973;1474,84541;0,06713
139,04801;9,26973;1468,23078;0,06870
141,44801;9,42973;1460,63222;0,07028
143,84801;9,58973;1453,70737;0,07185
146,24801;9,74970;1445,91453;0,07343
148,64801;9,90973;1438,80788;0,07500
151,04801;10,06970;1432,03968;0,07657
153,44801;10,22976;1424,61350;0,07813
155,84801;10,38976;1418,16176;0,07970
158,24801;10,54973;1411,77895;0,08126
160,64801;10,70970;1405,61555;0,08282
163,04801;10,86976;1399,94714;0,08438
165,44801;11,02973;1393,54868;0,08594
167,84801;11,18973;1387,73620;0,08750
170,24801;11,34973;1382,61933;0,08904
172,64801;11,50973;1376,74101;0,09060
175,04801;11,66976;1371,40788;0,09215
177,44801;11,82979;1365,80532;0,09369
179,84801;11,98970;1361,21493;0,09524
182,24801;12,14970;1357,19469;0,09678
184,64801;12,30976;1352,27526;0,09833
187,04801;12,46970;1347,10819;0,09987
189,44801;12,62973;1342,92506;0,10141
191,84801;12,78973;1339,72270;0,10294
194,24801;12,94970;1334,73743;0,10448
196,64801;13,10976;1330,56063;0,10601
199,04801;13,26973;1326,92270;0,10755
201,44801;13,42973;1323,04039;0,10909
203,84801;13,58973;1320,30491;0,11062
206,24801;13,74973;1316,35992;0,11216
208,64801;13,90973;1312,01074;0,11369
211,04801;14,06973;1309,40061;0,11522
213,44801;14,22976;1306,21390;0,11675
215,84801;14,38978;1302,91441;0,11828
218,24801;14,54973;1299,09161;0,11982
220,64801;14,70970;1296,62557;0,12135
223,04801;14,86976;1294,67659;0,12289
225,44801;15,02976;1291,24233;0,12442
227,84801;15,18973;1287,99304;0,12595
230,24801;15,34975;1285,36718;0,12748
232,64801;15,50973;1282,23374;0,12901
235,04801;15,66975;1280,77986;0,13055
237,44801;15,82981;1277,98794;0,13208
239,84801;15,98970;1275,18671;0,13362
242,24801;16,14970;1273,25654;0,13516
244,64801;16,30975;1270,09489;0,13669
247,04801;16,46972;1269,86615;0,13823
249,44801;16,62970;1266,59796;0,13976
251,84801;16,78972;1264,11626;0,14130
254,24801;16,94969;1261,90726;0,14284
256,64801;17,10975;1260,40317;0,14438
259,04801;17,26972;1258,85531;0,14593
261,44801;17,42972;1257,17260;0,14747
263,84801;17,58972;1254,95726;0,14902
266,24801;17,74972;1253,55981;0,15057
268,64801;17,90975;1251,51053;0,15212
271,04801;18,06972;1251,01861;0,15367
273,44801;18,22975;1248,28313;0,15522
275,84801;18,38978;1247,11748;0,15678
278,24801;18,54972;1246,53149;0,15834
280,64801;18,70969;1244,73916;0,15990
283,04801;18,86975;1244,35695;0,16146
285,44801;19,02975;1242,50818;0,16301
287,84801;19,18969;1241,03231;0,16458
290,24801;19,34972;1240,17065;0,16615
292,64801;19,50975;1238,36892;0,16772
295,04801;19,66975;1237,91462;0,16930
297,44801;19,82981;1236,15051;0,17087
299,84801;19,98969;1236,34478;0,17245
302,24801;20,14969;1233,70010;0,17403
304,64801;20,30975;1233,21442;0,17561
307,04801;20,46972;1232,58149;0,17719
309,44801;20,62972;1231,59448;0,17878
311,84801;20,78972;1230,93333;0,18037
314,24801;20,94972;1230,73282;0,18198
316,64802;21,10975;1229,04070;0,18357
319,04802;21,26975;1228,94989;0,18517
321,44802;21,42972;1227,67147;0,18677
323,84802;21,58972;1227,12310;0,18837
326,24802;21,74972;1226,52771;0,18998
328,64802;21,90972;1225,00490;0,19159
331,04802;22,06975;1225,81953;0,19321
333,44802;22,22975;1224,97985;0,19483
335,84802;22,38975;1224,23721;0,19645
338,24802;22,54975;1224,57249;0,19808
340,64802;22,70969;1223,44447;0,19970
343,04802;22,86974;1222,97127;0,20134
345,44802;23,02975;1222,33834;0,20297
347,84802;23,18969;1222,07515;0,20461
350,24802;23,34972;1222,54826;0,20626
352,64802;23,50975;1221,21656;0,20790
355,04802;23,66975;1220,89693;0,20955
357,44802;23,82977;1219,75010;0,21120
359,84802;23,98972;1220,19816;0,21286
362,24802;24,14969;1220,05092;0,21452
364,64802;24,30974;1219,44929;0,21619
367,04802;24,46974;1219,99141;0,21787
369,44802;24,62971;1219,42423;0,21954
371,84802;24,78971;1219,45245;0,22120
374,24802;24,94972;1219,61851;0,22289
376,64802;25,10974;1219,41799;0,22457
379,04802;25,26974;1219,22372;0,22625
381,44802;25,42971;1218,92290;0,22794
383,84802;25,58972;1218,92914;0,22964
386,24802;25,74972;1218,36513;0,23133
388,64802;25,90971;1218,53119;0,23304
391,04802;26,06971;1218,91974;0,23475
393,44802;26,22974;1218,64714;0,23647
395,84802;26,38977;1217,52536;0,23817
398,24802;26,54974;1218,12392;0,23989
400,64802;26,70971;1218,69417;0,24161
403,04802;26,86974;1218,71922;0,24335
405,44802;27,02971;1219,07014;0,24510
407,84802;27,18971;1218,88220;0,24684
410,24802;27,34974;1219,23620;0,24857
412,64802;27,50974;1218,67219;0,25032
415,04802;27,66974;1220,01963;0,25207
417,44802;27,82980;1218,51871;0,25384
419,84802;27,98968;1218,15205;0,25560
422,24802;28,14971;1219,82843;0,25736
424,64802;28,30977;1219,59029;0,25914
427,04802;28,46971;1220,72464;0,26095
429,44802;28,62974;1220,95020;0,26275
431,84802;28,78974;1220,84366;0,26450
434,24802;28,94971;1221,54243;0,26627
436,64802;29,10977;1221,30429;0,26809
439,04802;29,26974;1222,53262;0,26994
441,44802;29,42974;1222,70491;0,27177
443,84802;29,58974;1222,41983;0,27359
446,24802;29,74968;1223,64499;0,27541
448,64802;29,90971;1224,46902;0,27726
451,04802;30,06974;1224,71973;0,27908
453,44802;30,22974;1224,78865;0,28091
455,84802;30,38974;1225,14591;0,28270
458,24802;30,54974;1225,68794;0,28457
460,64802;30,70974;1226,19560;0,28641
463,04802;30,86974;1226,39295;0,28823
465,44802;31,02974;1227,47403;0,29012
467,84802;31,18971;1229,27884;0,29191
470,24802;31,34973;1228,23231;0,29373
472,64802;31,50968;1228,69918;0,29554
475,04802;31,66979;1229,37597;0,29742
477,44802;31,82979;1229,36973;0,29930
479,84802;31,98970;1231,53180;0,30118
482,24802;32,14971;1230,41002;0,30308
484,64802;32,30976;1230,74846;0,30481
487,04802;32,46970;1231,67280;0,30673
489,44802;32,62973;1232,78834;0,30855
491,84802;32,78973;1231,96421;0,31042
494,24802;32,94971;1233,36799;0,31183
496,64802;33,10973;1237,85501;0,31109
499,04802;33,26976;1240,51850;0,31082
501,44802;33,42973;1239,65368;0,31097
503,84802;33,58971;1239,70378;0,31116
506,24802;33,74973;1238,81074;0,31129
508,64802;33,90967;1237,01841;0,31156
511,04802;34,06970;1236,54846;0,31156
513,44802;34,22973;1237,41329;0,31151
515,84802;34,38973;1237,60756;0,31146
518,24802;34,54973;1238,69171;0,31144
520,64802;34,70970;1238,40338;0,31142
523,04802;34,86973;1240,06411;0,31137
525,44802;35,02973;1240,39631;0,31136
527,84803;35,18973;1240,44018;0,31136
530,24803;35,34973;1240,93210;0,31134
532,64803;35,50970;1241,64959;0,31136
535,04803;35,66976;1242,57086;0,31129
537,44803;35,82979;1243,06912;0,31131
539,84803;35,98967;1243,67066;0,31138
542,24803;36,14973;1244,32249;0,31134
544,64803;36,30976;1245,46299;0,31131
547,04803;36,46973;1245,89857;0,31130
549,44803;36,62973;1245,86727;0,31131
551,84803;36,78973;1245,96125;0,31129
554,24803;36,94970;1247,04540;0,31129
556,64803;37,10976;1247,61565;0,31126
559,04803;37,26976;1248,70297;0,31115
561,44803;37,42970;1248,17034;0,31119
563,84803;37,58970;1248,35521;0,31123
566,24803;37,74970;1248,74376;0,31125
568,64803;37,90973;1249,11033;0,31127
571,04803;38,06973;1249,89990;0,31127
573,44803;38,22976;1250,09418;0,31126
575,84803;38,38976;1251,51677;0,31122
578,24803;38,54970;1252,39724;0,31127
580,64803;38,70967;1251,57638;0,31123
583,04803;38,86973;1252,84847;0,31122
585,44803;39,02975;1252,49131;0,31125
587,84803;39,18967;1253,08037;0,31125
590,24803;39,34973;1253,26840;0,31124
592,64803;39,50975;1253,63497;0,31126
595,04803;39,66976;1254,75992;0,31123
597,44803;39,82975;1254,78180;0,31124
599,84803;39,98970;1254,54366;0,31123
602,24803;40,14967;1254,46850;0,31122
604,64803;40,30978;1254,49672;0,31122
607,04803;40,46973;1254,80685;0,31122
609,44803;40,62970;1255,61841;0,31120
611,84803;40,78970;1255,08578;0,31122
614,24803;40,94972;1251,76124;0,31154
616,64803;41,10975;1249,81217;0,00083
619,04803;41,26970;1249,13855;-0,00713
621,44803;41,42972;1247,35562;0,01751
623,84803;41,58973;1246,16176;0,01951
626,24803;41,74972;1244,54182;0,01701
628,64803;41,90973;1241,06994;0,01396
631,04803;42,06972;1235,63036;0,00027
633,44803;42,22978;1226,93190;0,00027
635,84803;42,38975;1209,71063;0,00026
637,28603;42,48556;641,69895;0,00026