File: 02_Appendices/Appendix_C_Experimental_Data_and_Analysis Reports/C_1_Materials_Tests/C_1_1_Tensile_tests/C_1_1_2_Quanton Iron/Specimen_RawData_1.csv
Text Inputs : Specimen label;"1"
Dimension : Length;50,00000;mm
Dimension : Final length;100,00000;mm
Test : Rate 1;3,00000;mm/min
General : Unique Identifier;"{2AE97416-FF9F-4429-A10E-9744BE5EA52C}"

Time;Extension;Load;Strain 1
(sec);(mm);(N);(mm/mm)
0,00000;0,00000;9,06500;0,00007
3,60000;0,12003;64,29477;0,00080
7,20000;0,24000;67,46893;0,00095
10,80000;0,36003;69,63100;0,00099
14,40000;0,47991;85,76501;0,00118
18,00000;0,60003;143,16622;0,00195
21,60000;0,72000;199,91256;0,00277
25,20000;0,83997;255,78779;0,00363
28,80000;0,96008;306,04482;0,00447
32,40000;1,07994;355,61249;0,00530
36,00000;1,19997;402,25978;0,00612
39,60000;1,32000;449,44915;0,00695
43,20000;1,44000;494,27906;0,00778
46,80000;1,56000;534,74414;0,00857
50,40000;1,67997;573,56413;0,00933
54,00000;1,80003;610,70779;0,01009
57,60000;1,92003;647,82319;0,01085
61,20000;2,03997;682,35043;0,01160
64,80000;2,16003;716,70841;0,01235
68,40000;2,27988;749,77232;0,01312
72,00000;2,40008;783,55065;0,01388
75,60000;2,52003;815,57427;0,01466
79,20000;2,64000;847,09022;0,01543
82,80000;2,76003;877,49697;0,01622
86,40000;2,87997;907,65310;0,01703
90,00000;3,00000;936,26129;0,01784
93,60000;3,12002;963,73511;0,01864
97,20000;3,24000;989,50760;0,01946
100,80000;3,36002;1016,16671;0,02028
104,40000;3,47991;1040,85812;0,02112
108,00001;3,60002;1065,03563;0,02197
111,60001;3,72000;1088,26375;0,02284
115,20001;3,83994;1110,99677;0,02373
118,80001;3,96005;1131,77765;0,02463
122,40001;4,07994;1152,31099;0,02555
126,00001;4,20000;1171,34657;0,02649
129,60001;4,31999;1189,52356;0,02745
133,20001;4,43997;1206,58819;0,02843
136,80001;4,55999;1222,16754;0,02943
140,40001;4,67999;1236,69729;0,03045
144,00001;4,80005;1250,68799;0,03149
147,60001;4,91999;1262,76426;0,03255
151,20001;5,03999;1273,48676;0,03362
154,80001;5,16005;1283,08451;0,03472
158,40001;5,27991;1291,06529;0,03583
162,00001;5,40011;1298,45710;0,03697
165,60001;5,52002;1305,06232;0,03813
169,20001;5,63999;1310,11028;0,03931
172,80001;5,76002;1313,91743;0,04050
176,40001;5,87999;1317,44249;0,04171
180,00001;6,00002;1319,71426;0,04294
183,60001;6,12002;1321,47837;0,04420
187,20001;6,23999;1322,20844;0,04545
190,80001;6,36005;1321,86059;0,04673
194,40001;6,47994;1320,79218;0,04802
198,00001;6,60005;1319,70169;0,04931
201,51401;6,71706;1317,87490;0,05060
205,11401;6,83703;1316,07950;0,05192
208,71401;6,95714;1313,00241;0,05326
212,31401;7,07706;1310,11968;0,05461
215,91401;7,19700;1306,40343;0,05596
219,51401;7,31709;1302,72163;0,05733
223,11401;7,43703;1299,10260;0,05870
226,71401;7,55706;1295,01661;0,06008
230,31401;7,67711;1291,04340;0,06146
233,91401;7,79706;1286,42162;0,06285
237,51401;7,91708;1282,62071;0,06425
241,11401;8,03703;1278,19637;0,06565
244,71401;8,15711;1273,18287;0,06705
248,31401;8,27706;1269,05618;0,06846
251,91401;8,39711;1264,98891;0,06987
255,51401;8,51711;1260,24811;0,07128
259,11401;8,63703;1256,82009;0,07270
262,71401;8,75708;1252,20772;0,07411
266,31401;8,87708;1248,14995;0,07553
269,91401;8,99703;1244,60598;0,07695
273,51401;9,11711;1240,56386;0,07837
277,11401;9,23703;1236,83829;0,07979
280,71401;9,35714;1233,85210;0,08122
284,31401;9,47705;1230,73123;0,08264
287,91401;9,59705;1226,96171;0,08406
291,51401;9,71708;1223,92857;0,08549
295,11401;9,83703;1221,13349;0,08692
298,71401;9,95711;1218,03768;0,08835
302,31401;10,07708;1215,23952;0,08977
305,91401;10,19700;1212,48523;0,09119
309,51401;10,31708;1210,19157;0,09262
313,11401;10,43702;1207,56263;0,09404
316,71402;10,55705;1204,15036;0,09547
320,31402;10,67714;1201,63737;0,09690
323,91402;10,79705;1198,81416;0,09832
327,51402;10,91708;1197,63287;0,09976
331,11402;11,03702;1194,14218;0,10118
334,71402;11,15714;1191,63543;0,10262
338,31402;11,27702;1189,02847;0,10404
341,91402;11,39708;1187,26436;0,10546
345,51402;11,51711;1185,89820;0,10689
349,11402;11,63702;1182,90577;0,10831
352,71402;11,75705;1181,79647;0,10973
356,31402;11,87711;1179,07356;0,11116
359,91402;11,99702;1177,73246;0,11258
363,51402;12,11711;1176,16262;0,11401
367,11402;12,23702;1174,06631;0,11543
370,71402;12,35711;1172,92581;0,11685
374,31402;12,47705;1171,50005;0,11827
377,91402;12,59708;1170,26232;0,11970
381,51402;12,71708;1168,56406;0,12111
385,11402;12,83702;1166,47407;0,12254
388,71402;12,95714;1164,11773;0,12396
392,31402;13,07705;1164,02684;0,12538
395,91402;13,19699;1161,81467;0,12680
399,51402;13,31708;1161,54207;0,12823
403,11402;13,43705;1161,05005;0,12965
406,71402;13,55705;1160,00036;0,13107
410,31402;13,67711;1158,83788;0,13249
413,91402;13,79705;1157,36835;0,13390
417,51402;13,91711;1156,13379;0,13532
421,11402;14,03702;1155,05895;0,13673
424,71402;14,15711;1153,97479;0,13815
428,31402;14,27702;1153,63011;0,13957
431,91402;14,39713;1151,62786;0,14099
435,51402;14,51711;1151,28318;0,14240
439,11402;14,63702;1150,08308;0,14382
442,71402;14,75708;1150,14575;0,14525
446,31402;14,87711;1148,09647;0,14667
449,91402;14,99705;1147,70168;0,14808
453,51402;15,11711;1146,90578;0,14950
457,11402;15,23705;1145,48635;0,15092
460,71402;15,35713;1145,55219;0,15234
464,31402;15,47705;1144,64974;0,15375
467,91402;15,59708;1143,60629;0,15517
471,51402;15,71710;1142,06150;0,15659
475,11402;15,83705;1142,63808;0,15801
478,71402;15,95716;1141,29698;0,15943
482,31402;16,07708;1141,00873;0,16085
485,91402;16,19707;1140,25986;0,16227
489,51402;16,31710;1139,64248;0,16368
493,11402;16,43705;1139,67704;0,16510
496,71402;16,55708;1138,97510;0,16651
500,31402;16,67713;1138,61477;0,16793
503,91402;16,79708;1137,64340;0,16934
507,51402;16,91710;1137,95986;0,17076
511,11402;17,03699;1136,59687;0,17217
514,71402;17,15710;1136,64698;0,17359
518,31402;17,27702;1136,65015;0,17500
521,91402;17,39710;1137,33634;0,17642
525,51402;17,51707;1136,18327;0,17784
529,11403;17,63704;1135,63798;0,17925
532,71403;17,75707;1136,18951;0,18066
536,31403;17,87710;1135,46569;0,18207
539,91403;17,99705;1134,89227;0,18349
543,51403;18,11710;1133,94912;0,18491
547,11403;18,23702;1134,59770;0,18632
550,71403;18,35713;1134,38461;0,18774
554,31403;18,47704;1134,54442;0,18915
557,91403;18,59704;1134,35648;0,19057
561,51403;18,71707;1133,40700;0,19198
565,11403;18,83702;1133,61692;0,19340
568,71403;18,95716;1132,88062;0,19481
572,31403;19,07707;1133,62949;0,19622
575,91403;19,19704;1133,15322;0,19763
579,51403;19,31707;1133,63890;0,19905
583,11403;19,43707;1133,85199;0,20046
586,71403;19,55707;1133,80179;0,20188
590,31403;19,67713;1133,04667;0,20330
593,91403;19,79707;1133,40076;0,20472
597,51403;19,91713;1134,16528;0,20613
601,11403;20,03701;1134,23113;0,20754
604,71403;20,15713;1134,43164;0,20895
608,31403;20,27704;1134,25935;0,21037
611,91403;20,39713;1133,77050;0,21179
615,51403;20,51710;1134,06815;0,21320
619,11403;20,63704;1134,54759;0,21462
622,71403;20,75710;1134,01180;0,21603
626,31403;20,87710;1135,61917;0,21745
629,91403;20,99704;1134,79514;0,21887
633,51403;21,11707;1135,32469;0,22028
637,11403;21,23704;1135,97643;0,22170
640,71403;21,35710;1135,14606;0,22312
644,31403;21,47701;1135,15230;0,22453
647,91403;21,59704;1135,98900;0,22594
651,51403;21,71704;1136,23645;0,22736
655,11403;21,83698;1136,30854;0,22877
658,71403;21,95710;1136,13931;0,23019
662,31403;22,07704;1136,57173;0,23160
665,91403;22,19704;1136,94780;0,23301
669,51403;22,31704;1138,72448;0,23442
673,11403;22,43701;1137,54943;0,23584
676,71403;22,55704;1138,07265;0,23724
680,31403;22,67710;1138,03511;0,23867
683,91403;22,79704;1138,38920;0,24008
687,51403;22,91707;1139,76160;0,24148
691,11403;23,03701;1139,47643;0,24289
694,71403;23,15713;1139,97776;0,24431
698,31403;23,27701;1140,23788;0,24573
701,91403;23,39710;1141,29074;0,24714
705,51403;23,51707;1141,15598;0,24856
709,11403;23,63704;1141,92050;0,24997
712,71403;23,75710;1142,07724;0,25139
716,31403;23,87709;1142,46579;0,25280
719,91403;23,99704;1143,13941;0,25421
723,51403;24,11709;1143,45280;0,25564
727,11403;24,23704;1144,57766;0,25709
730,71403;24,35712;1144,91917;0,25852
734,31403;24,47707;1145,67755;0,25996
737,91404;24,59706;1146,67704;0,26140
741,51404;24,71706;1147,86150;0,26284
745,11404;24,83701;1148,54770;0,26427
748,71404;24,95715;1149,40945;0,26571
752,31404;25,07706;1150,50301;0,26709
755,91404;25,19703;1150,26487;0,26850
759,51404;25,31706;1151,46497;0,26996
763,11404;25,43704;1151,76886;0,27138
766,71404;25,55704;1152,74647;0,27280
770,31404;25,67709;1152,97530;0,27421
773,91404;25,79704;1153,92786;0,27563
777,51404;25,91709;1155,24381;0,27707
781,11404;26,03704;1155,50393;0,27849
784,71404;26,15709;1156,66017;0,27991
788,31404;26,27703;1156,98604;0,28132
791,91404;26,39712;1157,13021;0,28272
795,51404;26,51709;1157,77254;0,28412
799,11404;26,63703;1158,74698;0,28553
802,71404;26,75709;1157,75997;0,28651
806,31404;26,87709;1157,75689;0,20699
809,91404;26,99706;1158,38982;0,04775
813,51404;27,11709;1158,54647;0,01483
817,11404;27,23703;1158,88491;0,01482
820,71404;27,41601;1180,06058;0,01481
824,31404;27,59609;1193,86641;0,01480
827,91404;27,77604;1206,06171;0,01479
831,51404;27,95612;1214,97009;0,01479
835,11404;28,13607;1222,72531;0,01478
838,71404;28,31609;1229,65649;0,01478
842,31404;28,49615;1234,54146;0,01477
845,91404;28,67615;1238,49586;0,01477
849,51404;28,85609;1243,11764;0,01477
853,11404;29,03609;1245,29228;0,01476
856,71404;29,21606;1247,29453;0,01476
860,31404;29,39612;1249,10250;0,01476
863,91404;29,57603;1250,51877;0,01476
867,51404;29,75612;1251,64054;0,01476
871,11404;29,93612;1252,60875;0,01476
874,71404;30,11618;1252,51478;0,01476
878,31404;30,29612;1252,56488;0,01475
881,91404;30,47609;1253,35138;0,01475
885,51404;30,65612;1253,94678;0,01475
889,11404;30,83612;1252,88768;0,01475
892,71404;31,01606;1252,89084;0,01475
896,31404;31,19603;1253,17592;0,01474
899,91404;31,37606;1251,53093;0,01474
903,51404;31,55611;1251,86928;0,01474
907,11404;31,73614;1252,09494;0,01474
910,71404;31,91612;1251,53717;0,01474
914,31404;32,09614;1251,40864;0,01474
917,91404;32,27609;1250,54074;0,01474
921,51404;32,45611;1249,58502;0,01474
925,11404;32,63609;1247,94934;0,01474
928,71404;32,81609;1246,71478;0,01474
932,31404;32,99603;1243,40281;0,01474
935,91404;33,17606;1240,96181;0,01473
939,51404;33,35617;1237,66866;0,01474
943,11404;33,53617;1233,05619;0,01474
946,71404;33,71611;1226,54494;0,01473
950,31405;33,89611;1214,99831;0,01473
953,91405;34,07611;1194,12336;0,01473
956,42605;34,20176;659,73024;0,01473