File: 02_Appendices/Appendix_C_Experimental_Data_and_Analysis Reports/C_1_Materials_Tests/C_1_1_Tensile_tests/C_1_1_2_Quanton Iron/Specimen_RawData_8.csv
Text Inputs : Specimen label;"1"
Dimension : Length;50,00000;mm
Dimension : Final length;100,00000;mm
Test : Rate 1;4,00000;mm/min
General : Unique Identifier;"{61C05103-8CE1-4D39-B6FB-7E66F3766F98}"

Time;Extension;Load;Strain 1
(sec);(mm);(N);(mm/mm)
0,00000;0,00000;-1,40961;-0,00005
2,10000;0,14003;88,70458;0,00095
4,20000;0,27994;120,24876;0,00146
6,30000;0,41997;123,22866;0,00156
8,40000;0,56000;134,87246;0,00171
10,50000;0,70003;195,54498;0,00239
12,60000;0,83997;266,09092;0,00328
14,70000;0,98000;332,19680;0,00418
16,80000;1,12003;396,74221;0,00509
18,90000;1,26000;457,91920;0,00600
21,00000;1,40003;514,59661;0,00688
23,10000;1,54006;569,93607;0,00774
25,20000;1,68000;618,17202;0,00856
27,30000;1,82003;667,44201;0,00937
29,40000;1,96005;710,38557;0,01014
31,50000;2,10005;754,31308;0,01090
33,60000;2,24000;796,27279;0,01165
35,70000;2,37997;837,10756;0,01241
37,80000;2,52003;876,37883;0,01317
39,90000;2,65997;915,65941;0,01394
42,00000;2,80003;954,08149;0,01471
44,10000;2,94003;993,00798;0,01550
46,20000;3,08000;1031,43323;0,01630
48,30000;3,21997;1069,48866;0,01713
50,40000;3,36002;1105,69540;0,01797
52,50000;3,50005;1143,16493;0,01882
54,60000;3,64000;1179,10532;0,01971
56,70000;3,77997;1213,82996;0,02060
58,80000;3,92000;1248,36024;0,02150
60,90000;4,05997;1282,30155;0,02243
63,00000;4,20000;1314,28447;0,02337
65,10000;4,34002;1344,65359;0,02433
67,20000;4,47997;1373,99500;0,02532
69,30000;4,61997;1401,92946;0,02632
71,40000;4,75999;1429,03356;0,02735
73,50000;4,90005;1452,86648;0,02839
75,60000;5,03997;1477,21628;0,02946
77,70000;5,17997;1497,55850;0,03055
79,80000;5,32002;1517,18939;0,03167
81,90000;5,45997;1535,90851;0,03281
84,00000;5,59999;1552,07068;0,03397
86,10000;5,74005;1567,03591;0,03516
88,20000;5,87996;1579,44430;0,03638
90,30000;6,01999;1590,04144;0,03762
92,40000;6,16002;1599,17865;0,03888
94,50000;6,30005;1604,93162;0,04016
96,60000;6,43996;1612,08194;0,04147
98,70000;6,57996;1615,37211;0,04280
100,80000;6,71999;1617,60617;0,04414
102,90000;6,85996;1618,47416;0,04551
105,00000;6,99999;1618,26108;0,04689
107,10001;7,13999;1617,90699;0,04829
109,20001;7,27993;1613,97774;0,04970
111,15801;7,41042;1611,06996;0,05102
113,25801;7,55039;1606,96208;0,05245
115,35801;7,69039;1602,16466;0,05389
117,45801;7,83045;1596,79092;0,05533
119,55801;7,97039;1590,26086;0,05678
121,65801;8,11045;1583,06640;0,05822
123,75801;8,25045;1576,35789;0,05969
125,85801;8,39045;1569,38601;0,06115
127,95801;8,53039;1563,13162;0,06261
130,05801;8,67045;1556,15350;0,06407
132,15801;8,81045;1547,82804;0,06553
134,25801;8,95039;1540,10728;0,06699
136,35801;9,09039;1533,00064;0,06845
138,45801;9,23042;1526,29828;0,06990
140,55801;9,37039;1518,93161;0,07136
142,65801;9,51042;1511,71843;0,07281
144,75801;9,65044;1504,00707;0,07426
146,85801;9,79039;1498,02538;0,07572
148,95801;9,93039;1490,94695;0,07716
151,05801;10,07042;1485,36945;0,07861
153,15801;10,21047;1477,46382;0,08005
155,25801;10,35039;1472,24981;0,08149
157,35801;10,49039;1465,70094;0,08293
159,45801;10,63039;1460,75329;0,08437
161,55801;10,77036;1455,07241;0,08581
163,65801;10,91039;1449,73928;0,08725
165,75801;11,05042;1445,08611;0,08868
167,85801;11,19036;1439,69040;0,09012
169,95801;11,33039;1434,03765;0,09154
172,05801;11,47039;1429,39398;0,09298
174,15801;11,61041;1424,75022;0,09441
176,25801;11,75038;1420,20043;0,09584
178,35801;11,89038;1415,81371;0,09726
180,45801;12,03044;1411,66812;0,09870
182,55801;12,17036;1408,47210;0,10012
184,65801;12,31041;1404,42364;0,10155
186,75801;12,45044;1400,74501;0,10298
188,85801;12,59044;1397,17292;0,10441
190,95801;12,73036;1393,86086;0,10583
193,05801;12,87041;1390,66484;0,10726
195,15801;13,01041;1387,05513;0,10868
197,25801;13,15038;1384,74889;0,11012
199,35801;13,29038;1381,40870;0,11155
201,45801;13,43041;1378,68263;0,11299
203,55801;13,57035;1375,58673;0,11442
205,65801;13,71035;1373,10512;0,11586
207,75801;13,85041;1370,71433;0,11729
209,85801;13,99035;1367,74695;0,11872
211,95801;14,13038;1366,14572;0,12016
214,05801;14,27041;1362,96535;0,12160
216,15801;14,41044;1360,41781;0,12304
218,25801;14,55035;1358,47516;0,12448
220,35801;14,69041;1356,38509;0,12593
222,45801;14,83044;1354,01310;0,12738
224,55801;14,97041;1352,39000;0,12882
226,65801;15,11041;1351,09592;0,13027
228,75801;15,25047;1347,30134;0,13172
230,85801;15,39041;1346,22343;0,13317
232,95801;15,53041;1345,24265;0,13463
235,05801;15,67044;1343,56944;0,13609
237,15801;15,81044;1342,40063;0,13756
239,25801;15,95041;1341,69878;0,13902
241,35801;16,09038;1340,34511;0,14049
243,45801;16,23044;1338,19245;0,14196
245,55801;16,37038;1337,17414;0,14343
247,65801;16,51041;1336,38764;0,14490
249,75801;16,65041;1335,30349;0,14638
251,85801;16,79038;1334,04378;0,14785
253,95801;16,93038;1332,71525;0,14933
256,05801;17,07043;1331,74704;0,15082
258,15801;17,21043;1329,52537;0,15231
260,25801;17,35041;1329,49408;0,15380
262,35801;17,49035;1328,51014;0,15530
264,45801;17,63044;1326,99357;0,15679
266,55801;17,77035;1326,84950;0,15829
268,65801;17,91041;1325,70574;0,15979
270,75801;18,05041;1325,65247;0,16130
272,85801;18,19038;1324,38345;0,16280
274,95801;18,33038;1323,85390;0,16431
277,05801;18,47038;1323,57189;0,16583
279,15801;18,61043;1321,84541;0,16735
281,25801;18,75038;1321,78897;0,16887
283,35801;18,89038;1321,42548;0,17039
285,45801;19,03043;1320,54817;0,17193
287,55801;19,17038;1319,74285;0,17346
289,65801;19,31038;1319,35431;0,17500
291,75801;19,45046;1318,85298;0,17654
293,85801;19,59040;1319,18509;0,17809
295,95801;19,73038;1319,23836;0,17964
298,05801;19,87038;1319,03784;0,18120
300,15801;20,01043;1318,63989;0,18275
302,25801;20,15035;1317,16719;0,18431
304,35801;20,29037;1317,19848;0,18587
306,45801;20,43040;1317,94736;0,18744
308,55801;20,57035;1317,22046;0,18902
310,65801;20,71038;1316,94786;0,19059
312,75801;20,85040;1317,52128;0,19218
314,85801;20,99038;1317,65595;0,19376
316,95802;21,13035;1317,39909;0,19535
319,05802;21,27040;1318,19490;0,19695
321,15802;21,41043;1317,56198;0,19854
323,25802;21,55040;1317,65911;0,20013
325,35802;21,69037;1317,78764;0,20173
327,45802;21,83046;1317,26740;0,20334
329,55802;21,97040;1317,36454;0,20496
331,65802;22,11043;1317,26740;0,20657
333,75802;22,25046;1317,48365;0,20819
335,85802;22,39043;1317,44603;0,20983
337,95802;22,53040;1318,73703;0,21145
340,05802;22,67043;1318,91249;0,21308
342,15802;22,81043;1318,63989;0,21472
344,25802;22,95040;1319,40134;0,21636
346,35802;23,09037;1319,08478;0,21800
348,45802;23,23040;1319,31985;0,21965
350,55802;23,37037;1320,27557;0,22131
352,65802;23,51037;1320,18151;0,22296
354,75802;23,65043;1320,95860;0,22463
356,85802;23,79040;1320,68284;0,22628
358,95802;23,93040;1321,15912;0,22795
361,05802;24,07040;1321,78273;0,22960
363,15802;24,21046;1321,11525;0,23128
365,25802;24,35037;1322,53477;0,23296
367,35802;24,49037;1322,65380;0,23464
369,45802;24,63043;1323,01729;0,23632
371,55802;24,77037;1324,09520;0,23800
373,65802;24,91037;1324,84715;0,23970
375,75802;25,05043;1324,48999;0,24140
377,85802;25,19037;1324,86913;0,24311
379,95802;25,33037;1325,41750;0,24481
382,05802;25,47040;1325,31719;0,24652
384,15802;25,61042;1325,67752;0,24825
386,25802;25,75037;1326,06300;0,24997
388,35802;25,89037;1326,86198;0,25168
390,45802;26,03042;1327,18477;0,25341
392,55802;26,17037;1328,59480;0,25514
394,65802;26,31040;1329,16821;0,25687
396,75802;26,45043;1328,52588;0,25861
398,85802;26,59040;1330,17087;0,26035
400,95802;26,73037;1329,99225;0,26211
403,05802;26,87043;1331,18294;0,26381
405,15802;27,01043;1331,15165;0,26554
407,25802;27,15037;1330,86341;0,26735
409,35802;27,29037;1332,37997;0,26914
411,45802;27,43040;1333,14449;0,27090
413,55802;27,57034;1333,58948;0,27266
415,65802;27,71037;1333,22598;0,27444
417,75802;27,85040;1334,47619;0,27622
419,85802;27,99037;1334,25063;0,27799
421,95802;28,13037;1335,67946;0,27976
424,05802;28,27039;1336,55369;0,28156
426,15802;28,41045;1335,90819;0,28334
428,25802;28,55039;1337,14899;0,28513
430,35802;28,69039;1337,05502;0,28689
432,45802;28,83042;1336,89204;0,28864
434,55802;28,97039;1338,01075;0,29052
436,65802;29,11042;1338,23007;0,29225
438,75802;29,25045;1339,34245;0,29406
440,85802;29,39042;1339,04787;0,29586
442,95802;29,53042;1340,26995;0,29771
445,05802;29,67042;1340,98120;0,29957
447,15802;29,81045;1341,81781;0,30148
449,25802;29,95039;1343,36883;0,30326
451,35802;30,09036;1342,61996;0,30508
453,45802;30,23042;1344,18355;0,30688
455,55802;30,37036;1343,51924;-0,01722
457,65802;30,51042;1343,69479;-0,01239
459,75802;30,65042;1344,39347;0,00719
461,85802;30,79039;1345,14868;0,00525
463,95802;30,93036;1345,92885;0,00656
466,05802;31,07042;1346,32057;-0,00072
468,15802;31,21042;1346,78120;-0,00073
470,25802;31,35039;1347,20420;-0,00074
472,35802;31,49036;1347,90298;-0,00074
474,45802;31,63042;1348,33222;-0,00075
476,55802;31,77036;1349,02783;-0,00075
478,65802;31,91039;1349,60124;-0,00075
480,75802;32,05039;1350,05563;-0,00076
482,85802;32,19036;1351,21495;-0,00076
484,95802;32,33036;1351,22128;-0,00076
487,05802;32,47039;1352,52476;-0,00076
489,15802;32,61045;1352,54664;-0,00077
491,25802;32,75036;1353,59950;-0,00077
493,35802;32,89039;1354,20114;-0,00077
495,45802;33,03042;1354,99388;-0,00077
497,55802;33,17036;1356,11566;-0,00077
499,65802;33,31039;1357,00870;-0,00078
501,75802;33,45044;1357,43795;-0,00078
503,85802;33,59039;1358,39051;-0,00078
505,95802;33,73042;1358,39675;-0,00078
508,05802;33,87039;1359,10185;-0,00078
510,15802;34,01041;1358,99531;-0,00078
512,25802;34,15036;1359,73785;-0,00079
514,35802;34,29039;1360,71555;-0,00079
516,45802;34,43041;1360,69981;-0,00079
518,55802;34,57036;1361,34848;-0,00079
520,65802;34,71039;1361,27640;-0,00079
522,75802;34,85039;1361,49265;-0,00079
524,85802;34,99036;1361,87486;-0,00079
526,95803;35,13036;1361,96893;-0,00080
529,05803;35,27041;1362,72404;-0,00080
531,15803;35,41044;1362,45461;-0,00079
533,25803;35,55039;1362,69582;-0,00080
535,35803;35,69039;1362,61433;-0,00080
537,45803;35,83041;1363,34132;-0,00080
539,55803;35,97039;1362,73028;-0,00080
541,65803;36,11044;1362,16003;-0,00080
543,75803;36,25044;1360,75942;-0,00080
545,85803;36,39044;1358,60676;-0,00080
547,95803;36,53039;1356,36004;-0,00080
550,05803;36,67041;1353,72169;-0,00080
552,15803;36,81041;1347,41729;-0,00080
553,54603;36,90295;771,69104;-0,00081