File: 02_Appendices/Appendix_C_Experimental_Data_and_Analysis Reports/C_1_Materials_Tests/C_1_1_Tensile_tests/C_1_1_2_Quanton Iron/Specimen_RawData_3.csv
Text Inputs : Specimen label;"1"
Dimension : Length;50,00000;mm
Dimension : Final length;100,00000;mm
Test : Rate 1;4,00000;mm/min
General : Unique Identifier;"{AAFCEEAA-C881-4D3C-8DF6-96DE63448034}"

Time;Extension;Load;Strain 1
(sec);(mm);(N);(mm/mm)
0,00000;0,00000;19,29337;0,00029
2,20000;0,14667;89,88631;0,00115
4,40000;0,29330;89,69205;0,00126
6,60000;0,43997;89,51657;0,00131
8,80000;0,58664;133,45972;0,00183
11,00000;0,73333;202,04727;0,00276
13,20000;0,87997;267,36041;0,00369
15,40000;1,02667;326,34714;0,00459
17,60000;1,17330;381,27922;0,00548
19,80000;1,32000;438,34201;0,00639
22,00000;1,46664;488,12591;0,00724
24,20000;1,61333;535,18680;0,00808
26,40000;1,76000;581,34217;0,00891
28,60000;1,90666;625,24774;0,00973
30,80000;2,05336;668,19130;0,01056
33,00000;2,20000;710,50511;0,01138
35,20000;2,34666;751,03282;0,01221
37,40000;2,49330;792,18727;0,01305
39,60000;2,64000;831,42715;0,01390
41,80000;2,78666;869,21304;0,01473
44,00000;2,93333;907,30619;0,01559
46,20000;3,07997;944,65660;0,01647
48,40000;3,22666;982,10415;0,01737
50,60000;3,37330;1019,67705;0,01829
52,80000;3,52002;1054,47685;0,01924
55,00000;3,66666;1088,64689;0,02021
57,20000;3,81336;1122,00221;0,02119
59,40000;3,96005;1153,68115;0,02220
61,60000;4,10672;1184,91510;0,02322
63,80000;4,25339;1214,18759;0,02428
66,00000;4,40005;1242,56387;0,02534
68,20000;4,54669;1267,60621;0,02643
70,40000;4,69336;1292,28197;0,02755
72,60000;4,83999;1316,24639;0,02869
74,80000;4,98666;1337,55058;0,02985
77,00000;5,13330;1355,88739;0,03104
79,20000;5,27994;1373,23402;0,03226
81,40000;5,42663;1388,48750;0,03350
83,60000;5,57330;1402,94200;0,03477
85,80000;5,72002;1415,14046;0,03607
88,00000;5,86666;1425,43372;0,03740
90,20000;6,01335;1433,92533;0,03875
92,40000;6,16002;1440,09506;0,04013
94,60000;6,30669;1445,80724;0,04152
96,80000;6,45335;1448,42369;0,04294
99,00000;6,59999;1452,12738;0,04437
101,20000;6,74669;1453,32124;0,04583
103,40000;6,89333;1452,61930;0,04731
105,60001;7,03996;1451,99578;0,04880
107,80001;7,18663;1450,60765;0,05030
109,86801;7,32438;1447,05754;0,05173
112,06801;7,47107;1444,24057;0,05326
114,26801;7,61768;1440,42093;0,05480
116,46801;7,76441;1435,58607;0,05634
118,66801;7,91104;1431,31828;0,05790
120,86801;8,05774;1425,91000;0,05946
123,06801;8,20444;1421,09394;0,06103
125,26801;8,35104;1415,18433;0,06261
127,46801;8,49777;1408,41296;0,06419
129,66801;8,64441;1403,05171;0,06578
131,86801;8,79102;1396,61878;0,06736
134,06801;8,93777;1390,94098;0,06895
136,26801;9,08435;1384,13832;0,07054
138,46801;9,23107;1378,19424;0,07213
140,66801;9,37771;1372,66060;0,07373
142,86801;9,52438;1367,23034;0,07532
145,06801;9,67107;1361,40846;0,07692
147,26801;9,81777;1356,10355;0,07851
149,46801;9,96446;1349,91501;0,08011
151,66801;10,11113;1345,10836;0,08170
153,86801;10,25779;1339,68750;0,08329
156,06801;10,40446;1334,86204;0,08489
158,26801;10,55104;1329,71071;0,08648
160,46801;10,69777;1325,41796;0,08807
162,66801;10,84440;1321,22543;0,08967
164,86801;10,99101;1316,06776;0,09125
167,06801;11,13771;1311,72175;0,09285
169,26801;11,28432;1307,64199;0,09443
171,46801;11,43104;1302,54393;0,09602
173,66801;11,57765;1298,54567;0,09761
175,86801;11,72437;1294,85764;0,09919
178,06801;11,87107;1290,61183;0,10078
180,26801;12,01774;1285,84905;0,10236
182,46801;12,16440;1282,63729;0,10395
184,66801;12,31113;1278,76438;0,10553
186,86801;12,45776;1275,99128;0,10711
189,06801;12,60443;1272,63227;0,10869
191,26801;12,75104;1269,56776;0,11027
193,46801;12,89776;1266,15232;0,11185
195,66801;13,04434;1262,99066;0,11343
197,86801;13,19098;1259,50631;0,11500
200,06801;13,33773;1258,41592;0,11659
202,26801;13,48431;1254,41132;0,11816
204,46801;13,63107;1252,17726;0,11975
206,66801;13,77768;1250,31909;0,12132
208,86801;13,92437;1247,37993;0,12289
211,06801;14,07107;1244,95784;0,12447
213,26801;14,21768;1242,37277;0,12604
215,46801;14,36440;1240,18872;0,12761
217,66801;14,51109;1237,79168;0,12919
219,86801;14,65776;1235,36009;0,13076
222,06801;14,80443;1233,27328;0,13234
224,26801;14,95107;1231,77860;0,13391
226,46801;15,09776;1229,50068;0,13549
228,66801;15,24446;1227,09731;0,13706
230,86801;15,39104;1225,05426;0,13863
233,06801;15,53782;1222,75436;0,14020
235,26801;15,68434;1221,18453;0,14178
237,46801;15,83112;1219,47993;0,14335
239,66801;15,97773;1218,67154;0,14492
241,86801;16,12440;1215,90160;0,14650
244,06801;16,27106;1215,11817;0,14807
246,26801;16,41770;1213,58279;0,14965
248,46801;16,56440;1212,31694;0,15122
250,66801;16,71106;1210,24260;0,15279
252,86801;16,85773;1208,81377;0,15437
255,06801;17,00442;1207,58861;0,15594
257,26801;17,15103;1206,02185;0,15752
259,46801;17,29773;1205,70855;0,15910
261,66801;17,44442;1203,37727;0,16067
263,86801;17,59101;1201,85446;0,16225
266,06801;17,73778;1200,93320;0,16382
268,26801;17,88431;1198,84629;0,16540
270,46801;18,03109;1198,15702;0,16698
272,66801;18,17770;1197,16683;0,16856
274,86801;18,32439;1196,23309;0,17014
277,06801;18,47106;1195,77553;0,17172
279,26801;18,61770;1194,05845;0,17330
281,46801;18,76442;1193,71060;0,17488
283,66801;18,91106;1192,40405;0,17646
285,86801;19,05776;1190,42052;0,17804
288,06801;19,20439;1190,05395;0,17962
290,26801;19,35106;1189,52440;0,18120
292,46801;19,49773;1187,71009;0,18278
294,66801;19,64442;1187,56285;0,18437
296,86801;19,79100;1187,07716;0,18596
299,06801;19,93776;1186,14659;0,18755
301,26801;20,08434;1184,76162;0,18913
303,46801;20,23109;1184,15682;0,19072
305,66801;20,37770;1182,91602;0,19231
307,86801;20,52442;1183,00375;0,19390
310,06801;20,67109;1182,28933;0,19550
312,26801;20,81772;1182,13268;0,19709
314,46801;20,96448;1180,79465;0,19869
316,66802;21,11112;1180,93258;0,20028
318,86802;21,25778;1179,90794;0,20188
321,06802;21,40445;1180,02389;0,20347
323,26802;21,55109;1179,88279;0,20507
325,46802;21,69775;1178,78923;0,20667
327,66802;21,84442;1179,16213;0,20827
329,86802;21,99100;1178,24096;0,20987
332,06802;22,13770;1179,21541;0,21148
334,26802;22,28428;1178,01530;0,21309
336,46802;22,43106;1177,85241;0,21470
338,66802;22,57770;1178,83943;0,21631
340,86802;22,72436;1177,98708;0,21792
343,06802;22,87108;1177,94955;0,21953
345,26802;23,01767;1177,93381;0,22115
347,46802;23,16445;1177,66438;0,22277
349,66802;23,31111;1177,94015;0,22439
351,86802;23,45778;1178,68269;0,22601
354,06802;23,60442;1178,79240;0,22763
356,26802;23,75106;1179,40651;0,22925
358,46802;23,89772;1178,91459;0,23087
360,66802;24,04439;1178,94281;0,23250
362,86802;24,19100;1179,38463;0,23412
365,06802;24,33772;1180,29332;0,23576
367,26802;24,48430;1180,08340;0,23739
369,46802;24,63103;1179,96428;0,23903
371,66802;24,77772;1180,44056;0,24067
373,86802;24,92439;1180,69751;0,24230
376,06802;25,07108;1180,84475;0,24394
378,26802;25,21772;1181,77542;0,24559
380,46802;25,36444;1181,35558;0,24723
382,66802;25,51105;1181,63759;0,24889
384,86802;25,65775;1182,24854;0,25054
387,06802;25,80444;1182,63401;0,25219
389,26802;25,95108;1183,86233;0,25385
391,46802;26,09778;1183,52706;0,25550
393,66802;26,24444;1184,08166;0,25717
395,86802;26,39108;1184,68953;0,25883
398,06802;26,53778;1184,86816;0,26048
400,26802;26,68439;1184,89005;0,26218
402,46802;26,83111;1185,44158;0,26390
404,66802;26,97772;1186,22491;0,26561
406,86802;27,12439;1186,40978;0,26727
409,06802;27,27105;1187,12420;0,26894
411,26802;27,41769;1187,38115;0,27067
413,46802;27,56441;1188,24905;0,27238
415,66802;27,71105;1187,81356;0,27410
417,86802;27,85775;1188,66274;0,27579
420,06802;28,00439;1189,42102;0,27750
422,26802;28,15102;1188,91960;0,27922
424,46802;28,29775;1190,08841;0,28092
426,66802;28,44441;1191,23207;0,28264
428,86802;28,59105;1192,34137;0,28433
431,06802;28,73777;1192,70477;0,28604
433,26802;28,88433;1192,65150;0,28773
435,46802;29,03108;1193,21560;0,28944
437,66802;29,17772;1194,07726;0,29114
439,86802;29,32438;1194,86060;0,29282
442,06802;29,47105;1195,62205;0,29454
444,26802;29,61766;1195,56254;0,29622
446,46802;29,76441;1196,91612;0,29788
448,66802;29,91108;1197,69322;0,29961
450,86802;30,05775;1197,91254;0,30132
453,06802;30,20441;1198,71469;0,30302
455,26802;30,35105;1199,04056;0,30475
457,46802;30,49774;1199,84280;0,30642
459,66802;30,64441;1199,83964;0,30810
461,86802;30,79102;1200,34097;0,30979
464,06802;30,93774;1202,24925;0,31152
466,26802;31,08432;1201,54107;0,31319
468,46802;31,23108;1204,93146;0,31368
470,66802;31,37771;1209,17726;0,31317
472,86802;31,52441;1210,47758;0,31302
475,06802;31,67107;1212,33258;0,31288
477,26802;31,81774;1212,84649;0,31278
479,46802;31,96446;1213,40733;0,31266
481,66802;32,11113;1213,35406;0,31251
483,86802;32,25777;1213,48882;0,31225
486,06802;32,40449;1211,42706;0,31243
488,26802;32,55104;1208,08054;0,31326
490,46802;32,69777;1208,29670;0,16523
492,66802;32,84441;1208,41265;0,14678
494,86802;32,99099;1208,78238;0,14562
497,06802;33,13771;1208,90150;-0,00882
499,26802;33,28429;1209,05815;0,00039
501,46802;33,43107;1210,08279;0,00210
503,66802;33,57771;1211,26408;0,00209
505,86802;33,72438;1211,54608;0,00209
508,06802;33,87107;1212,29496;0,00208
510,26802;34,01771;1212,02869;0,00208
512,46802;34,16443;1212,78064;0,00207
514,66802;34,31110;1212,45477;0,00207
516,86802;34,45777;1213,69567;0,00207
519,06802;34,60443;1214,17195;0,00206
521,26802;34,75101;1214,04342;0,00206
523,46802;34,89771;1214,53851;0,00206
525,66802;35,04435;1214,88320;0,00205
527,86803;35,19104;1216,44055;0,00205
530,06803;35,33777;1216,90109;0,00205
532,26803;35,48435;1216,09587;0,00205
534,46803;35,63107;1217,13923;0,00205
536,66803;35,77765;1217,51837;0,00205
538,86803;35,92438;1218,25477;0,00204
541,06803;36,07104;1219,17604;0,00204
543,26803;36,21771;1218,84076;0,00204
545,46803;36,36446;1218,00406;0,00204
547,66803;36,51110;1218,75610;0,00204
549,86803;36,65774;1219,05692;0,00204
552,06803;36,80440;1218,43647;0,00204
554,26803;36,95104;1218,74670;0,00204
556,46803;37,09776;1216,69741;0,00204
558,66803;37,24443;1213,27890;0,00203
560,86803;37,39107;1208,49414;0,00203
563,06803;37,53782;1200,54148;0,00203
565,26803;37,68434;1180,31213;0,00203
566,58403;37,77206;620,11206;0,00203