File: 02_Appendices/Appendix_C_Experimental_Data/C_1_Materials_Tests/C_1_1_Tensile_tests/C_1_1_2_Quanton Iron/Specimen_RawData_7.csv
Text Inputs : Specimen label;"1"
Dimension : Length;50,00000;mm
Dimension : Final length;100,00000;mm
Test : Rate 1;4,00000;mm/min
General : Unique Identifier;"{A4873304-788C-4C87-8BCD-B24231115660}"

Time;Extension;Load;Strain 1
(sec);(mm);(N);(mm/mm)
0,00000;0,00000;3,56425;0,00007
2,00000;0,13333;79,28348;0,00036
4,00000;0,26667;97,36961;0,00089
6,00000;0,40006;100,34638;0,00098
8,00000;0,53336;115,05467;0,00116
10,00000;0,66667;163,68231;0,00173
12,00000;0,80000;218,08171;0,00244
14,00000;0,93333;270,69191;0,00313
16,00000;1,06669;320,46952;0,00383
18,00000;1,19997;372,68805;0,00461
20,00000;1,33333;417,98796;0,00533
22,00000;1,46667;460,12630;0,00602
24,00000;1,60000;499,81112;0,00670
26,00000;1,73333;537,08008;0,00735
28,00000;1,86664;573,80381;0,00800
30,00000;1,99997;609,77871;0,00866
32,00000;2,13333;646,21102;0,00932
34,00000;2,26669;681,38684;0,00999
36,00000;2,40005;716,67549;0,01068
38,00000;2,53336;752,53756;0,01137
40,00000;2,66666;787,34048;0,01208
42,00000;2,80000;822,42237;0,01280
44,00000;2,93333;856,51083;0,01353
46,00000;3,06666;891,14150;0,01427
48,00000;3,19997;925,28956;0,01504
50,00000;3,33333;959,82933;0,01583
52,00000;3,46666;993,51993;0,01664
54,00000;3,60000;1027,74631;0,01747
56,00000;3,73336;1061,24580;0,01832
58,00000;3,86663;1094,37229;0,01920
60,00000;4,00000;1126,27689;0,02009
62,00000;4,13330;1157,14734;0,02101
64,00000;4,26663;1188,04611;0,02196
66,00000;4,40005;1217,69141;0,02293
68,00000;4,53336;1246,45624;0,02392
70,00000;4,66666;1272,65174;0,02494
72,00000;4,79999;1300,89642;0,02599
74,00000;4,93333;1324,76687;0,02706
76,00000;5,06666;1348,42424;0,02817
78,00000;5,19997;1370,78436;0,02931
80,00000;5,33333;1391,26442;0,03049
82,00000;5,46666;1410,74490;0,03170
84,00000;5,59999;1428,64622;0,03296
86,00000;5,73336;1444,85226;0,03426
88,00000;5,86663;1459,31924;0,03560
90,00000;5,99996;1472,72404;0,03698
92,00000;6,13333;1483,90103;0,03842
94,00000;6,26666;1493,51433;0,03989
96,00000;6,40005;1501,68007;0,04141
98,00000;6,53335;1509,07813;0,04298
100,00000;6,66666;1513,98191;0,04460
102,00000;6,79999;1517,42240;0,04626
104,00000;6,93333;1521,08222;0,04797
106,00001;7,06669;1522,61443;0,04972
107,90601;7,19352;1523,25369;0,05144
109,90601;7,32686;1522,26044;0,05328
111,90601;7,46025;1521,44888;0,05516
113,90601;7,59355;1518,54418;0,05708
115,90601;7,72691;1515,68335;0,05904
117,90601;7,86022;1511,60359;0,06104
119,90601;7,99349;1507,48314;0,06307
121,90601;8,12688;1502,78620;0,06513
123,90601;8,26025;1496,72609;0,06723
125,90601;8,39361;1492,07609;0,06935
127,90601;8,52691;1486,13825;0,07150
129,90601;8,66022;1479,73979;0,07367
131,90601;8,79355;1473,25676;0,07586
133,90601;8,92688;1466,91781;0,07807
135,90601;9,06028;1460,79203;0,08031
137,90601;9,19352;1454,23058;0,08255
139,90601;9,32686;1447,40604;0,08481
141,90601;9,46022;1441,06708;0,08710
143,90601;9,59355;1434,74694;0,08938
145,90601;9,72694;1428,84050;0,09169
147,90601;9,86022;1422,68958;0,09400
149,90601;9,99352;1416,43211;0,09632
151,90601;10,12688;1410,50052;0,09865
153,90601;10,26025;1404,28068;0,10098
155,90601;10,39363;1398,88180;0,10333
157,90601;10,52688;1393,36064;0,10568
159,90601;10,66024;1387,70798;0,10803
161,90601;10,79355;1382,76974;0,11039
163,90601;10,92688;1377,22036;0,11277
165,90601;11,06027;1372,56412;0,11514
167,90601;11,19352;1367,30308;0,11751
169,90601;11,32685;1362,11729;0,11989
171,90601;11,46024;1358,46371;0,12228
173,90601;11,59358;1354,41534;0,12465
175,90601;11,72691;1348,90052;0,12704
177,90601;11,86021;1345,60410;0,12943
179,90601;11,99352;1341,09827;0,13182
181,90601;12,12688;1336,73027;0,13422
183,90601;12,26027;1333,33681;0,13661
185,90601;12,39360;1330,01218;0,13902
187,90601;12,52691;1326,30225;0,14141
189,90601;12,66021;1322,61422;0,14381
191,90601;12,79352;1319,01391;0,14621
193,90601;12,92688;1316,01207;0,14861
195,90601;13,06027;1312,47127;0,15102
197,90601;13,19352;1309,04336;0,15343
199,90601;13,32688;1307,16013;0,15584
201,90601;13,46024;1304,27424;0,15825
203,90601;13,59355;1300,55174;0,16066
205,90601;13,72694;1298,12332;0,16308
207,90601;13,86021;1295,40041;0,16549
209,90601;13,99352;1291,95675;0,16790
211,90601;14,12688;1289,81974;0,17031
213,90601;14,26027;1286,93702;0,17273
215,90601;14,39363;1285,18539;0,17514
217,90601;14,52691;1282,80092;0,17756
219,90601;14,66021;1280,01217;0,17998
221,90601;14,79355;1278,36084;0,18240
223,90601;14,92685;1276,41186;0,18482
225,90601;15,06024;1273,63876;0,18723
227,90601;15,19354;1271,65839;0,18965
229,90601;15,32688;1269,52771;0,19207
231,90601;15,46027;1268,48109;0,19448
233,90601;15,59357;1265,93988;0,19690
235,90601;15,72690;1265,47301;0,19932
237,90601;15,86024;1263,11984;0,20175
239,90601;15,99351;1261,50930;0,20416
241,90601;16,12690;1260,25276;0,20658
243,90601;16,26024;1258,77382;0,20900
245,90601;16,39360;1257,65204;0,21141
247,90601;16,52693;1255,90665;0,21383
249,90601;16,66024;1253,67260;0,21625
251,90601;16,79357;1252,70747;0,21867
253,90601;16,92690;1251,81759;0,22108
255,90601;17,06026;1250,43886;0,22350
257,90601;17,19351;1249,97199;0,22592
259,90601;17,32687;1248,27996;0,22834
261,90601;17,46024;1247,11432;0,23075
263,90601;17,59357;1246,75082;0,23315
265,90601;17,72690;1245,67915;0,23556
267,90601;17,86024;1245,35961;0,23797
269,90601;17,99351;1243,59857;0,24037
271,90601;18,12687;1243,13170;0,24278
273,90601;18,26026;1242,84653;0,24521
275,90601;18,39362;1241,69039;0,24763
277,90601;18,52693;1241,01983;0,25005
279,90601;18,66023;1240,44633;0,25246
281,90601;18,79357;1239,99827;0,25487
283,90601;18,92690;1239,22750;0,25727
285,90601;19,06026;1238,74806;0,25968
287,90601;19,19351;1238,31248;0,26212
289,90601;19,32687;1237,85501;0,26455
291,90601;19,46024;1237,85818;0,26690
293,90601;19,59357;1237,07484;0,26935
295,90601;19,72693;1236,93692;0,27180
297,90601;19,86023;1237,13119;0,27422
299,90601;19,99351;1236,53589;0,27664
301,90601;20,12690;1236,61105;0,27908
303,90601;20,26026;1236,31340;0,28150
305,90601;20,39362;1235,94673;0,28391
307,90601;20,52693;1235,81830;0,28629
309,90601;20,66023;1235,29499;0,28871
311,90601;20,79354;1235,09448;0,29112
313,90601;20,92690;1235,55819;0,29346
315,90602;21,06026;1235,40154;0,29586
317,90602;21,19351;1235,35143;0,29828
319,90602;21,32687;1234,35501;0,30066
321,90602;21,46023;1234,45522;0,30304
323,90602;21,59357;1234,22965;0,30538
325,90602;21,72693;1233,60297;0,30778
327,90602;21,86020;1233,76595;0,31018
329,90602;21,99351;1233,78467;0,31255
331,90602;22,12690;1239,91370;0,31212
333,90602;22,26026;1243,53282;0,31176
335,90602;22,39362;1238,25297;0,31262
337,90602;22,52692;1238,05245;0,31263
339,90602;22,66020;1238,66657;0,31259
341,90602;22,79354;1238,53497;0,31258
343,90602;22,92687;1238,77628;0,31253
345,90602;23,06026;1239,02382;0,31251
347,90602;23,19353;1238,76687;0,31250
349,90602;23,32687;1239,15542;0,31248
351,90602;23,46026;1239,76953;0,31242
353,90602;23,59353;1239,31523;0,31248
355,90602;23,72689;1239,70686;0,31244
357,90602;23,86023;1240,59366;0,31242
359,90602;23,99353;1240,76596;0,31240
361,90602;24,12689;1241,75297;0,31236
363,90602;24,26026;1240,82556;0,31238
365,90602;24,39362;1241,69970;0,31234
367,90602;24,52692;1241,94100;0,31235
369,90602;24,66023;1242,38906;0,31233
371,90602;24,79356;1243,10665;0,31234
373,90602;24,92689;1243,05654;0,31236
375,90602;25,06026;1244,60757;0,31229
377,90602;25,19353;1244,32556;0,31238
379,90602;25,32686;1244,72035;0,31243
381,90602;25,46025;1244,92720;0,31244
383,90602;25,59356;1245,61656;0,31238
385,90602;25,72692;1246,92004;0,31231
387,90602;25,86023;1247,29294;0,31240
389,90602;25,99353;1248,03241;0,31233
391,90602;26,12689;1248,80318;0,31253
393,90602;26,26025;1243,37301;0,12653
395,90602;26,39362;1243,83671;0,08013
397,90602;26,52692;1244,10624;0,06807
399,90602;26,66022;1244,50726;0,06649
401,90602;26,79356;1245,44734;0,02375
403,90602;26,92689;1245,36902;0,00116
405,90602;27,06025;1246,45317;0,00093
407,90602;27,19353;1245,89857;0,00079
409,90602;27,32689;1247,59376;0,00078
411,90602;27,46025;1247,45267;0,00078
413,90602;27,59356;1249,58968;0,00078
415,90602;27,72692;1249,58027;0,00077
417,90602;27,86023;1249,52076;0,00077
419,90602;27,99350;1250,31043;0,00077
421,90602;28,12692;1251,09693;0,00076
423,90602;28,26025;1251,53866;0,00076
425,90602;28,39361;1253,24959;0,00076
427,90602;28,52692;1254,13947;0,00076
429,90602;28,66022;1254,37444;0,00076
431,90602;28,79356;1255,47741;0,00076
433,90602;28,92689;1255,97566;0,00075
435,90602;29,06025;1256,46135;0,00075
437,90602;29,19353;1258,31002;0,00075
439,90602;29,32686;1258,86779;0,00075
441,90602;29,46025;1258,82700;0,00075
443,90602;29,59356;1260,69142;0,00074
445,90602;29,72689;1260,77915;0,00074
447,90602;29,86022;1260,99847;0,00074
449,90602;29,99350;1261,96677;0,00074
451,90602;30,12692;1263,38303;0,00074
453,90602;30,26025;1264,52986;0,00074
455,90602;30,39361;1264,31677;0,00074
457,90602;30,52692;1264,86514;0,00074
459,90602;30,66022;1265,47618;0,00074
461,90602;30,79353;1265,71748;0,00074
463,90602;30,92686;1267,03978;0,00073
465,90602;31,06028;1267,66646;0,00073
467,90602;31,19353;1267,55992;0,00073
469,90602;31,32689;1269,00440;0,00073
471,90602;31,46025;1269,07649;0,00073
473,90602;31,59355;1269,83793;0,00073
475,90602;31,72691;1270,91585;0,00073
477,90602;31,86019;1270,48027;0,00073
479,90602;31,99349;1271,17271;0,00073
481,90602;32,12692;1271,92475;0,00073
483,90602;32,26025;1272,51381;0,00073
485,90602;32,39361;1272,65174;0,00073
487,90602;32,52694;1272,67363;0,00073
489,90602;32,66024;1272,80522;0,00073
491,90602;32,79355;1274,58507;0,00073
493,90602;32,92688;1274,51299;0,00073
495,90602;33,06025;1275,84152;0,00073
497,90602;33,19352;1275,29949;0,00073
499,90602;33,32686;1276,53088;0,00073
501,90602;33,46024;1276,97587;0,00073
503,90602;33,59355;1277,60256;0,00072
505,90602;33,72691;1277,46779;0,00072
507,90602;33,86022;1277,87516;0,00073
509,90602;33,99352;1277,10430;0,00072
511,90602;34,12688;1277,28293;0,00072
513,90602;34,26024;1277,16074;0,00072
515,90602;34,39361;1276,94765;0,00072
517,90602;34,52691;1276,00757;0,00072
519,90602;34,66024;1274,92342;0,00073
521,90602;34,79355;1272,27567;0,00072
523,90602;34,92691;1270,11994;0,00072
525,90602;35,06025;1265,60777;0,00072
527,90603;35,19352;1257,44520;0,00072
529,86803;35,32438;962,80919;0,00072
529,87603;35,32492;678,65453;0,00072