File: 02_Appendices/Appendix_C_Experimental_Data/C_1_Materials_Tests/C_1_1_Tensile_tests/C_1_1_2_Quanton Iron/Specimen_RawData_6.csv
Text Inputs : Specimen label;"1"
Dimension : Length;50,00000;mm
Dimension : Final length;100,00000;mm
Test : Rate 1;4,00000;mm/min
General : Unique Identifier;"{3007F469-4EBD-4F99-85B1-A18A16B31A65}"

Time;Extension;Load;Strain 1
(sec);(mm);(N);(mm/mm)
0,00000;0,00000;6,21089;0,00027
2,00000;0,13333;87,02819;0,00122
4,00000;0,26667;104,74145;0,00152
6,00000;0,40006;105,69087;0,00160
8,00000;0,53336;109,20345;0,00170
10,00000;0,66667;171,74035;0,00252
12,00000;0,80000;239,94250;0,00346
14,00000;0,93333;304,53179;0,00439
16,00000;1,06667;365,21999;0,00532
18,00000;1,20000;422,88438;0,00622
20,00000;1,33333;475,95524;0,00708
22,00000;1,46667;527,84476;0,00794
24,00000;1,60003;580,39231;0,00884
26,00000;1,73336;628,07989;0,00968
28,00000;1,86664;670,80730;0,01049
30,00000;1,99997;709,89053;0,01126
32,00000;2,13333;750,88511;0,01203
34,00000;2,26666;788,64917;0,01282
36,00000;2,40005;825,68619;0,01359
38,00000;2,53336;862,02454;0,01437
40,00000;2,66669;897,88353;0,01516
42,00000;2,80003;932,87444;0,01596
44,00000;2,93333;968,62996;0,01678
46,00000;3,06666;1002,51175;0,01761
48,00000;3,19997;1037,66872;0,01847
50,00000;3,33333;1071,48783;0,01935
52,00000;3,46666;1105,21596;0,02025
54,00000;3,60000;1136,11156;0,02117
56,00000;3,73336;1168,30124;0,02211
58,00000;3,86663;1198,25369;0,02306
60,00000;4,00000;1227,65144;0,02404
62,00000;4,13330;1256,03406;0,02505
64,00000;4,26666;1283,62700;0,02608
66,00000;4,40005;1309,80052;0,02713
68,00000;4,53336;1334,92434;0,02822
70,00000;4,66666;1358,24326;0,02934
72,00000;4,79999;1380,89163;0,03050
74,00000;4,93336;1401,39051;0,03168
76,00000;5,06669;1420,84286;0,03290
78,00000;5,19999;1437,95451;0,03416
80,00000;5,33333;1454,77159;0,03546
82,00000;5,46666;1469,21976;0,03681
84,00000;5,59999;1482,29562;0,03819
86,00000;5,73336;1493,95820;0,03961
88,00000;5,86663;1503,81597;0,04109
90,00000;5,99996;1512,00043;0,04260
92,00000;6,13330;1519,84338;0,04416
94,00000;6,26666;1524,60625;0,04577
96,00000;6,40002;1529,26249;0,04742
98,00000;6,53335;1531,86955;0,04911
99,94000;6,66264;1533,58663;0,05080
101,85200;6,78999;1534,44204;0,05250
103,85200;6,92333;1533,92190;0,05432
105,85201;7,05672;1532,36771;0,05619
107,85201;7,18996;1529,51321;0,05809
109,85201;7,32332;1527,80227;0,06004
111,85201;7,45671;1523,54399;0,06202
113,85201;7,58999;1520,26331;0,06404
115,85201;7,72332;1515,42844;0,06608
117,85201;7,85669;1510,19245;0,06816
119,85201;7,98996;1504,86566;0,07026
121,85201;8,12335;1498,96229;0,07240
123,85201;8,25671;1492,37271;0,07456
125,85201;8,39002;1487,45319;0,07674
127,85201;8,52335;1480,81975;0,07895
129,85201;8,65671;1474,77537;0,08118
131,85201;8,78999;1467,89439;0,08342
133,85201;8,92332;1462,07558;0,08567
135,85201;9,05668;1455,67711;0,08795
137,85201;9,18996;1448,78672;0,09023
139,85201;9,32332;1443,28754;0,09252
141,85201;9,45668;1437,29644;0,09484
143,85201;9,58999;1431,10482;0,09715
145,85201;9,72335;1425,81873;0,09948
147,85201;9,85668;1419,43907;0,10182
149,85201;9,98996;1412,85574;0,10416
151,85201;10,12335;1407,33151;0,10651
153,85201;10,25671;1401,85114;0,10886
155,85201;10,39002;1396,22977;0,11123
157,85201;10,52332;1391,58918;0,11360
159,85201;10,65665;1387,03315;0,11597
161,85201;10,78996;1381,69071;0,11835
163,85201;10,92332;1376,99684;0,12073
165,85201;11,05671;1372,37189;0,12312
167,85201;11,18999;1367,88795;0,12551
169,85201;11,32332;1362,96218;0,12789
171,85201;11,45671;1358,74143;0,13029
173,85201;11,58999;1355,13181;0,13268
175,85201;11,72332;1351,11781;0,13508
177,85201;11,85668;1346,78436;0,13748
179,85201;11,98996;1343,77619;0,13988
181,85201;12,12335;1339,44899;0,14228
183,85201;12,25671;1335,57292;0,14469
185,85201;12,39004;1332,58672;0,14710
187,85201;12,52335;1329,80430;0,14951
189,85201;12,65671;1325,58672;0,15192
191,85201;12,78999;1323,40901;0,15433
193,85201;12,92332;1320,73304;0,15674
195,85201;13,05668;1316,86954;0,15916
197,85201;13,18996;1313,80819;0,16157
199,85201;13,32332;1312,07220;0,16399
201,85201;13,45671;1308,57537;0,16641
203,85201;13,58998;1306,01218;0,16883
205,85201;13,72335;1303,61514;0,17124
207,85201;13,85668;1301,50635;0,17366
209,85201;13,98996;1298,56719;0,17607
211,85201;14,12332;1296,60564;0,17849
213,85201;14,25671;1294,18978;0,18092
215,85201;14,39001;1292,23447;0,18333
217,85201;14,52335;1290,33569;0,18575
219,85201;14,65671;1287,16147;0,18818
221,85201;14,78998;1285,93948;0,19060
223,85201;14,92332;1283,97169;0,19302
225,85201;15,05671;1281,53386;0,19544
227,85201;15,18995;1279,14622;0,19786
229,85201;15,32332;1278,03385;0,20028
231,85201;15,45671;1275,57097;0,20270
233,85201;15,58998;1274,77506;0,20512
235,85201;15,72331;1273,70032;0,20754
237,85201;15,85668;1272,18999;0,20997
239,85201;15,98995;1269,76781;0,21238
241,85201;16,12334;1269,65819;0,21481
243,85201;16,25673;1267,64337;0,21722
245,85201;16,39004;1266,10175;0,21964
247,85201;16,52334;1265,20246;0,22205
249,85201;16,65668;1263,98355;0,22447
251,85201;16,78998;1263,29735;0,22688
253,85201;16,92334;1261,79643;0,22930
255,85201;17,05668;1260,82823;0,23170
257,85201;17,18998;1259,47455;0,23411
259,85201;17,32331;1258,85727;0,23653
261,85201;17,45670;1256,94899;0,23894
263,85201;17,58998;1257,88907;0,24134
265,85201;17,72334;1255,90870;0,24376
267,85201;17,85665;1255,31340;0,24618
269,85201;17,98995;1254,02240;0,24858
271,85201;18,12334;1253,61504;0,25099
273,85201;18,25673;1252,17680;0,25341
275,85201;18,39001;1252,29275;0,25582
277,85201;18,52334;1250,82945;0,25823
279,85201;18,65670;1250,94848;0,26065
281,85201;18,78998;1250,20584;0,26308
283,85201;18,92331;1249,15615;0,26550
285,85201;19,05670;1249,09980;0,26785
287,85201;19,18998;1248,97128;0,27032
289,85201;19,32331;1248,16606;0,27274
291,85201;19,45670;1247,43907;0,27515
293,85201;19,58998;1247,64899;0,27757
295,85201;19,72334;1246,79673;0,28002
297,85201;19,85667;1246,18569;0,28247
299,85201;19,98998;1246,75911;0,28488
301,85201;20,12334;1245,52138;0,28730
303,85201;20,25673;1246,22332;0,28969
305,85201;20,39003;1245,48376;0,29205
307,85201;20,52334;1245,61228;0,29443
309,85201;20,65670;1244,80696;0,29673
311,85201;20,78998;1245,21749;0,29910
313,85201;20,92331;1245,04510;0,30159
315,85202;21,05670;1244,53437;0,30403
317,85202;21,18998;1243,94838;0,30640
319,85202;21,32334;1244,24919;0,30878
321,85202;21,45670;1242,62925;0,31116
323,85202;21,58998;1242,71698;0,31350
325,85202;21,72331;1248,91177;0,31273
327,85202;21,85667;1245,97577;0,31326
329,85202;21,98995;1244,08631;0,31336
331,85202;22,12336;1244,49367;0,31336
333,85202;22,25673;1243,97660;0,31334
335,85202;22,39003;1243,57864;0,31332
337,85202;22,52336;1244,11136;0,31332
339,85202;22,65670;1244,10512;0,31325
341,85202;22,78997;1245,27700;0,31315
343,85202;22,92331;1244,68794;0,31316
345,85202;23,05670;1243,90768;0,31321
347,85202;23,18997;1243,36872;0,31326
349,85202;23,32331;1244,25860;0,31327
351,85202;23,45673;1244,26177;0,31327
353,85202;23,58997;1244,36831;0,31318
355,85202;23,72331;1245,03570;0,31308
357,85202;23,85667;1244,84776;0,31311
359,85202;23,98997;1244,24295;0,31321
361,85202;24,12336;1243,52854;0,31327
363,85202;24,25672;1244,09879;0,31320
365,85202;24,39003;1246,08232;0,31301
367,85202;24,52336;1245,55901;0,31309
369,85202;24,65670;1244,94797;0,31318
371,85202;24,78997;1245,01688;0,31322
373,85202;24,92330;1246,15123;0,31302
375,85202;25,05669;1246,26402;0,31302
377,85202;25,18997;1246,22015;0,31314
379,85202;25,32331;1245,52455;0,31319
381,85202;25,45672;1247,17588;0,31304
383,85202;25,58997;1247,61770;0,31301
385,85202;25,72333;1247,91851;0,31309
387,85202;25,85667;1247,52056;0,31314
389,85202;25,98994;1248,41984;0,31299
391,85202;26,12333;1248,08764;0,31302
393,85202;26,25672;1248,02506;0,31310
395,85202;26,39003;1248,02813;0,31303
397,85202;26,52336;1248,21300;0,31300
399,85202;26,65666;1249,04653;0,31304
401,85202;26,79000;1249,26586;0,31304
403,85202;26,92333;1250,16514;0,31297
405,85202;27,05669;1249,91760;0,31302
407,85202;27,18997;1249,64816;0,31308
409,85202;27,32333;1250,70410;0,31296
411,85202;27,45672;1250,47844;0,31298
413,85202;27,59000;1251,22424;0,31308
415,85202;27,72333;1251,62844;0,31292
417,85202;27,85666;1251,48427;0,31300
419,85202;27,98997;1251,57833;0,31305
421,85202;28,12336;1253,25778;0,31289
423,85202;28,25672;1252,39929;0,31303
425,85202;28,39000;1252,97895;0,31302
427,85202;28,52336;1253,74040;0,31290
429,85202;28,65672;1253,17639;0,31309
431,85202;28,79000;1255,17547;0,31290
433,85202;28,92333;1254,71484;0,31298
435,85202;29,05669;1253,77169;0,31309
437,85202;29,18997;1256,43825;0,31289
439,85202;29,32333;1254,71801;0,31309
441,85202;29,45672;1256,37250;0,31293
443,85202;29,58997;1256,80175;0,31302
445,85202;29,72333;1255,38856;0,31342
447,85202;29,85666;1253,10430;0,02838
449,85202;29,98997;1252,61545;0,01657
451,85202;30,12336;1252,68437;0,02053
453,85202;30,25675;1253,06360;0,02102
455,85202;30,39002;1253,20144;0,02101
457,85202;30,52335;1253,36749;0,01636
459,85202;30,65669;1253,94408;0,00152
461,85202;30,78999;1254,19470;0,00228
463,85202;30,92333;1255,70819;0,00227
465,85202;31,05672;1254,36708;0,00226
467,85202;31,18996;1254,81514;0,00226
469,85202;31,32333;1255,35727;0,00225
471,85202;31,45672;1255,29142;0,00225
473,85202;31,58999;1255,71126;0,00225
475,85202;31,72332;1256,87690;0,00224
477,85202;31,85666;1255,39796;0,00224
479,85202;31,98996;1257,22792;0,00224
481,85202;32,12335;1257,53498;0,00224
483,85202;32,25671;1256,76412;0,00223
485,85202;32,39002;1257,17148;0,00223
487,85202;32,52335;1257,35635;0,00223
489,85202;32,65669;1257,68846;0,00223
491,85202;32,78999;1259,08284;0,00222
493,85202;32,92332;1259,12363;0,00222
495,85202;33,05668;1258,19920;0,00222
497,85202;33,18996;1258,62854;0,00222
499,85202;33,32332;1258,90430;0,00222
501,85202;33,45671;1258,86984;0,00221
503,85202;33,58999;1258,77270;0,00221
505,85202;33,72332;1258,34960;0,00221
507,85202;33,85666;1255,64551;0,00221
509,85202;33,98996;1251,78825;0,00221
511,85202;34,12335;1244,67853;0,00221
513,85202;34,25671;1232,89367;0,00221
515,31402;34,35415;659,63976;0,00220