File: 02_Appendices/Appendix_C_Experimental_Data/C_1_Materials_Tests/C_1_1_Tensile_tests/C_1_1_2_Quanton Iron/Specimen_RawData_2.csv
Text Inputs : Specimen label;"1"
Dimension : Length;50,00000;mm
Dimension : Final length;100,00000;mm
Test : Rate 1;4,00000;mm/min
General : Unique Identifier;"{3A6F2CAD-5807-4622-92CE-D5D0B7A6813D}"

Time;Extension;Load;Strain 1
(sec);(mm);(N);(mm/mm)
0,00000;0,00000;6,55547;-0,00003
2,00000;0,13330;72,20701;0,00075
4,00000;0,26667;72,39814;0,00083
6,00000;0,40006;72,96843;0,00087
8,00000;0,53336;114,73700;0,00133
10,00000;0,66669;185,08240;0,00220
12,00000;0,80000;255,61580;0,00317
14,00000;0,93336;320,03277;0,00412
16,00000;1,06669;383,96092;0,00505
18,00000;1,19997;442,72202;0,00598
20,00000;1,33330;499,87887;0,00690
22,00000;1,46667;552,84314;0,00780
24,00000;1,59997;603,00301;0,00868
26,00000;1,73336;650,65618;0,00953
28,00000;1,86666;695,84018;0,01038
30,00000;2,00000;738,77433;0,01122
32,00000;2,13333;781,24795;0,01206
34,00000;2,26666;821,37147;0,01290
36,00000;2,40005;862,07464;0,01374
38,00000;2,53336;899,62874;0,01458
40,00000;2,66666;937,08886;0,01543
42,00000;2,80003;973,37393;0,01628
44,00000;2,93333;1009,63078;0,01715
46,00000;3,06666;1043,47179;0,01803
48,00000;3,20000;1076,37588;0,01892
50,00000;3,33333;1107,64122;0,01980
52,00000;3,46666;1136,37783;0,02069
54,00000;3,60000;1165,18345;0,02159
56,00000;3,73336;1192,51003;0,02250
58,00000;3,86663;1217,25155;0,02342
60,00000;4,00000;1241,50114;0,02436
62,00000;4,13330;1265,26188;0,02531
64,00000;4,26666;1287,28990;0,02627
66,00000;4,40005;1306,99910;0,02725
68,00000;4,53336;1326,46710;0,02823
70,00000;4,66666;1342,96771;0,02924
72,00000;4,79999;1357,96741;0,03025
74,00000;4,93333;1372,06158;0,03128
76,00000;5,06669;1384,55452;0,03231
78,00000;5,19997;1395,26147;0,03336
80,00000;5,33333;1404,18857;0,03441
82,00000;5,46666;1412,46393;0,03548
84,00000;5,59999;1418,59604;0,03654
86,00000;5,73336;1423,86649;0,03763
88,00000;5,86663;1427,70810;0,03871
90,00000;5,99999;1430,40279;0,03979
92,00000;6,13333;1432,65575;0,04088
94,00000;6,26666;1432,76230;0,04197
96,00000;6,40005;1431,51209;0,04305
98,00000;6,53335;1429,87017;0,04413
100,00000;6,66666;1428,04962;0,04520
102,00000;6,79999;1425,43325;0,04628
104,00000;6,93333;1421,68254;0,04734
106,00001;7,06669;1418,58980;0,04841
108,00001;7,19996;1413,46976;0,04947
109,96401;7,33090;1409,00463;0,05050
111,89001;7,45919;1405,10360;0,05150
113,89001;7,59250;1399,34430;0,05254
115,89001;7,72583;1394,74133;0,05357
117,89001;7,85917;1389,08857;0,05459
119,89001;7,99247;1383,00033;0,05561
121,89001;8,12583;1378,12160;0,05662
123,89001;8,25919;1372,68510;0,05762
125,89001;8,39255;1367,69982;0,05862
127,89001;8,52583;1361,87477;0,05962
129,89001;8,65916;1356,35370;0,06060
131,89001;8,79252;1350,57252;0,06158
133,89001;8,92586;1345,17048;0,06255
135,89001;9,05919;1340,04736;0,06352
137,89001;9,19247;1335,25012;0,06448
139,89001;9,32580;1329,48142;0,06544
141,89001;9,45916;1326,18193;0,06640
143,89001;9,59250;1320,26915;0,06736
145,89001;9,72583;1316,32732;0,06831
147,89001;9,85916;1312,56096;0,06925
149,89001;9,99247;1307,82640;0,07020
151,89001;10,12583;1302,96638;0,07113
153,89001;10,25919;1298,45738;0,07207
155,89001;10,39255;1294,51239;0,07300
157,89001;10,52586;1290,94031;0,07394
159,89001;10,65916;1287,09562;0,07487
161,89001;10,79249;1283,57988;0,07579
163,89001;10,92586;1279,67875;0,07672
165,89001;11,05922;1276,27589;0,07765
167,89001;11,19247;1272,94194;0,07857
169,89001;11,32583;1269,39798;0,07949
171,89001;11,45922;1266,79102;0,08041
173,89001;11,59249;1262,81474;0,08132
175,89001;11,72586;1260,15125;0,08224
177,89001;11,85916;1257,15882;0,08316
179,89001;11,99246;1254,26361;0,08408
181,89001;12,12583;1252,23938;0,08500
183,89001;12,25919;1249,69818;0,08591
185,89001;12,39255;1246,81229;0,08683
187,89001;12,52585;1244,89153;0,08775
189,89001;12,65916;1242,25002;0,08866
191,89001;12,79249;1239,34224;0,08957
193,89001;12,92585;1237,47159;0,09049
195,89001;13,05919;1234,92405;0,09140
197,89001;13,19249;1232,64920;0,09232
199,89001;13,32582;1230,97906;0,09324
201,89001;13,45919;1228,54756;0,09416
203,89001;13,59249;1226,34480;0,09508
205,89001;13,72585;1225,07261;0,09599
207,89001;13,85916;1222,88233;0,09691
209,89001;13,99246;1220,48529;0,09782
211,89001;14,12582;1218,79317;0,09874
213,89001;14,25919;1217,31739;0,09967
215,89001;14,39255;1215,08949;0,10059
217,89001;14,52585;1214,75104;0,10152
219,89001;14,65919;1212,88672;0,10245
221,89001;14,79249;1211,87456;0,10338
223,89001;14,92585;1210,84685;0,10431
225,89001;15,05921;1209,06709;0,10524
227,89001;15,19249;1207,04910;0,10618
229,89001;15,32582;1206,60421;0,10712
231,89001;15,45919;1205,46985;0,10806
233,89001;15,59246;1204,64582;0,10900
235,89001;15,72585;1204,29797;0,10995
237,89001;15,85915;1203,24828;0,11089
239,89001;15,99246;1201,78806;0,11185
241,89001;16,12582;1200,86065;0,11280
243,89001;16,25924;1199,49756;0,11376
245,89001;16,39257;1199,46934;0,11472
247,89001;16,52585;1198,71730;0,11568
249,89001;16,65918;1197,46709;0,11664
251,89001;16,79249;1197,07547;0,11761
253,89001;16,92579;1196,42997;0,11858
255,89001;17,05918;1196,35165;0,11956
257,89001;17,19246;1194,71280;0,12053
259,89001;17,32588;1194,24909;0,12152
261,89001;17,45921;1194,43079;0,12250
263,89001;17,59254;1193,99214;0,12349
265,89001;17,72585;1193,19307;0,12448
267,89001;17,85918;1193,30594;0,12548
269,89001;17,99246;1192,99255;0,12647
271,89001;18,12585;1191,93038;0,12748
273,89001;18,25921;1191,55124;0,12848
275,89001;18,39251;1191,53867;0,12949
277,89001;18,52582;1191,34439;0,13051
279,89001;18,65912;1191,31934;0,13153
281,89001;18,79246;1190,57354;0,13255
283,89001;18,92582;1190,73652;0,13357
285,89001;19,05918;1191,05922;0,13460
287,89001;19,19246;1189,91556;0,13564
289,89001;19,32582;1190,00953;0,13668
291,89001;19,45921;1190,36045;0,13773
293,89001;19,59251;1190,49838;0,13878
295,89001;19,72590;1190,13488;0,13984
297,89001;19,85924;1190,59235;0,14091
299,89001;19,99251;1190,28846;0,14197
301,89001;20,12587;1190,81168;0,14304
303,89001;20,25924;1190,05032;0,14411
305,89001;20,39254;1190,32292;0,14519
307,89001;20,52582;1190,66127;0,14627
309,89001;20,65915;1190,78979;0,14736
311,89001;20,79245;1191,12814;0,14845
313,89001;20,92582;1190,68949;0,14956
315,89002;21,05918;1191,93979;0,15066
317,89002;21,19245;1191,58877;0,15177
319,89002;21,32579;1191,70472;0,15288
321,89002;21,45918;1192,30319;0,15400
323,89002;21,59248;1192,94561;0,15512
325,89002;21,72581;1192,37844;0,15625
327,89002;21,85915;1193,09593;0,15738
329,89002;21,99245;1194,36188;0,15852
331,89002;22,12584;1193,64429;0,15966
333,89002;22,25923;1194,30544;0,16082
335,89002;22,39254;1194,79112;0,16198
337,89002;22,52587;1195,19848;0,16313
339,89002;22,65918;1195,85022;0,16430
341,89002;22,79248;1195,81576;0,16547
343,89002;22,92584;1195,55881;0,16664
345,89002;23,05923;1196,76832;0,16783
347,89002;23,19248;1197,07547;0,16902
349,89002;23,32584;1197,90267;0,17022
351,89002;23,45920;1198,04051;0,17142
353,89002;23,59248;1198,52303;0,17262
355,89002;23,72584;1199,46934;0,17383
357,89002;23,85915;1199,78273;0,17504
359,89002;23,99245;1199,25942;0,17626
361,89002;24,12584;1200,75718;0,17749
363,89002;24,25920;1200,36555;0,17872
365,89002;24,39253;1200,86372;0,17996
367,89002;24,52584;1201,71607;0,18120
369,89002;24,65917;1202,07947;0,18245
371,89002;24,79248;1202,94429;0,18370
373,89002;24,92581;1201,90401;0,18497
375,89002;25,05917;1202,94429;0,18623
377,89002;25,19245;1203,38304;0,18749
379,89002;25,32584;1203,75585;0,18878
381,89002;25,45923;1204,10370;0,19005
383,89002;25,59248;1204,59255;0,19134
385,89002;25,72584;1205,10636;0,19263
387,89002;25,85917;1204,66454;0,19393
389,89002;25,99245;1205,73938;0,19524
391,89002;26,12581;1207,00840;0,19655
393,89002;26,25920;1206,52895;0,19786
395,89002;26,39251;1207,50973;0,19918
397,89002;26,52584;1206,94572;0,20051
399,89002;26,65917;1207,66954;0,20183
401,89002;26,79248;1208,03928;0,20317
403,89002;26,92584;1207,92333;0,20452
405,89002;27,05920;1208,83519;0,20587
407,89002;27,19245;1208,87281;0,20722
409,89002;27,32581;1209,64358;0,20858
411,89002;27,45920;1209,68437;0,20995
413,89002;27,59250;1210,62435;0,21131
415,89002;27,72584;1210,50533;0,21269
417,89002;27,85917;1210,91893;0,21407
419,89002;27,99247;1211,17271;0,21545
421,89002;28,12584;1210,85932;0,21685
423,89002;28,25923;1211,32629;0,21825
425,89002;28,39253;1212,00308;0,21965
427,89002;28,52581;1213,00574;0,22106
429,89002;28,65917;1212,91801;0,22247
431,89002;28,79247;1213,14991;0,22389
433,89002;28,92584;1213,25646;0,22530
435,89002;29,05923;1213,37548;0,22673
437,89002;29,19248;1213,83928;0,22816
439,89002;29,32584;1214,34685;0,22960
441,89002;29,45920;1214,09306;0,23105
443,89002;29,59250;1215,50001;0,23250
445,89002;29,72586;1215,47179;0,23395
447,89002;29,85917;1215,70360;0,23541
449,89002;29,99244;1215,51873;0,23687
451,89002;30,12583;1216,12037;0,23834
453,89002;30,25922;1216,00442;0,23981
455,89002;30,39253;1216,54030;0,24129
457,89002;30,52581;1217,01965;0,24276
459,89002;30,65920;1217,39255;0,24424
461,89002;30,79247;1217,36750;0,24574
463,89002;30,92581;1217,97854;0,24724
465,89002;31,05920;1218,82763;0,24874
467,89002;31,19244;1218,39521;0,25023
469,89002;31,32580;1218,52690;0,25173
471,89002;31,45922;1218,06627;0,25324
473,89002;31,59250;1218,43908;0,25474
475,89002;31,72583;1217,95656;0,25626
477,89002;31,85919;1218,60206;0,25778
479,89002;31,99244;1218,37333;0,25933
481,89002;32,12583;1219,23191;0,26086
483,89002;32,25922;1219,30083;0,26240
485,89002;32,39252;1219,81781;0,26393
487,89002;32,52580;1219,77711;0,26547
489,89002;32,65916;1219,96822;0,26697
491,89002;32,79247;1220,16249;0,26844
493,89002;32,92580;1220,58243;0,26995
495,89002;33,05922;1220,04971;0,27148
497,89002;33,19244;1219,73008;0,27300
499,89002;33,32583;1219,99020;0,27450
501,89002;33,45922;1219,91187;0,27599
503,89002;33,59250;1218,74930;0,27745
505,89002;33,72586;1218,51433;0,27892
507,89002;33,85916;1217,23274;0,28038
509,89002;33,99244;1215,92609;0,28178
511,89002;34,12583;1213,89255;0,28314
513,89002;34,25922;1208,67854;0,28444
515,89002;34,39252;1200,40942;0,28555
517,89002;34,52586;1181,37700;0,28625
518,92602;34,59489;638,30419;0,27601