File: 02_Appendices/Appendix_C_Experimental_Data/C_1_Materials_Tests/C_1_1_Tensile_tests/C_1_1_1_Quantun_70_30/Specimen_RawData_1.csv
Text Inputs : Specimen label;"1"
Dimension : Length;50,00000;mm
Dimension : Final length;100,00000;mm
Test : Rate 1;2,00000;mm/min
General : Unique Identifier;"{271946EA-5679-4D82-B7F6-AA7F2B3AF98A}"

Time;Extension;Load;Strain 1
(sec);(mm);(N);(mm/mm)
0,00000;-0,00028;9,24207;0,00029
1,20000;0,03561;30,90031;0,00046
2,40000;0,07977;61,57655;0,00075
3,60000;0,12023;66,83443;0,00083
4,80000;0,15983;69,99919;0,00089
6,00000;0,19886;72,53727;0,00093
7,20000;0,23989;77,40034;0,00099
8,40000;0,28034;77,63848;0,00101
9,60000;0,31937;80,67477;0,00103
10,80000;0,35954;82,39188;0,00106
12,00000;0,40000;86,34627;0,00110
13,20000;0,43989;93,95423;0,00117
14,40000;0,47977;106,66967;0,00129
15,60000;0,51994;133,15339;0,00153
16,80000;0,56011;159,25795;0,00178
18,00000;0,59971;183,44173;0,00202
19,20000;0,63960;207,55343;0,00226
20,40000;0,68034;233,14098;0,00251
21,60000;0,71966;256,66049;0,00275
22,80000;0,75954;277,70144;0,00299
24,00000;0,80000;302,76885;0,00324
25,20000;0,83932;327,31923;0,00351
26,40000;0,88006;353,42693;0,00379
27,60000;0,92023;378,55702;0,00407
28,80000;0,96011;402,15482;0,00433
30,00000;1,00000;426,16311;0,00460
31,20000;1,03988;450,15579;0,00487
32,40000;1,07920;470,41648;0,00513
33,60000;1,11966;493,15575;0,00539
34,80000;1,15983;513,80191;0,00564
36,00000;1,20028;534,60784;0,00589
37,20000;1,23988;554,92185;0,00613
38,40000;1,28006;574,82538;0,00637
39,60000;1,31966;594,64430;0,00662
40,80000;1,35983;613,79578;0,00686
42,00000;1,40000;633,75258;0,00711
43,20000;1,44017;652,82886;0,00735
44,40000;1,47949;669,85278;0,00759
45,60000;1,51966;690,54593;0,00783
46,80000;1,56040;708,04609;0,00808
48,00000;1,60000;727,60805;0,00832
49,20000;1,63988;744,85443;0,00857
50,40000;1,67977;763,16930;0,00881
51,60000;1,71994;782,01061;0,00906
52,80000;1,75954;799,99333;0,00931
54,00000;1,80085;818,82831;0,00956
55,20000;1,83988;836,72330;0,00980
56,40000;1,87977;854,50867;0,01005
57,60000;1,91966;872,34415;0,01031
58,80000;1,95954;889,40244;0,01055
60,00000;1,99971;907,24416;0,01081
61,20000;2,04045;925,48383;0,01108
62,40000;2,07977;941,39539;0,01133
63,60000;2,11994;959,54426;0,01158
64,80000;2,15983;975,77535;0,01184
66,00000;2,19914;991,62739;0,01210
67,20000;2,23988;1010,30255;0,01236
68,40000;2,27977;1026,62463;0,01262
69,60000;2,31966;1042,92464;0,01288
70,80000;2,35983;1059,71042;0,01315
72,00000;2,39971;1075,51226;0,01342
73,20000;2,43988;1092,16329;0,01368
74,40000;2,47977;1107,48895;0,01395
75,60000;2,51994;1123,35654;0,01422
76,80000;2,56011;1139,53762;0,01449
78,00000;2,59943;1154,94151;0,01475
79,20000;2,63988;1170,68067;0,01503
80,40000;2,68062;1186,95255;0,01530
81,60000;2,71937;1200,23834;0,01557
82,80000;2,75954;1216,87995;0,01585
84,00000;2,80000;1231,00858;0,01612
85,20000;2,83903;1244,70787;0,01639
86,40000;2,87948;1259,70133;0,01667
87,60000;2,92022;1274,39080;0,01696
88,80000;2,96011;1289,13354;0,01724
90,00000;3,00000;1302,68568;0,01752
91,20000;3,03988;1317,02730;0,01781
92,40000;3,07948;1329,62996;0,01809
93,60000;3,11937;1343,10061;0,01838
94,80000;3,15954;1356,55859;0,01866
96,00000;3,20000;1369,68773;0,01895
97,20000;3,23960;1382,44387;0,01923
98,40000;3,28005;1395,30031;0,01952
99,60000;3,31965;1406,72168;0,01979
100,80000;3,35983;1419,24592;0,02009
102,00000;3,40000;1431,07772;0,02038
103,20000;3,43988;1442,70901;0,02067
104,40000;3,47977;1454,13037;0,02096
105,60001;3,51965;1465,60809;0,02125
106,80001;3,56011;1477,81596;0,02155
108,00001;3,60000;1487,89929;0,02184
109,20001;3,63988;1498,81616;0,02213
110,40001;3,68005;1509,46043;0,02243
111,60001;3,71937;1519,34009;0,02273
112,80001;3,75897;1529,81831;0,02302
114,00001;3,80057;1540,88242;0,02334
115,20001;3,83960;1550,41739;0,02363
116,40001;3,88005;1560,35973;0,02394
117,60001;3,91994;1571,41760;0,02425
118,80001;3,95925;1580,79602;0,02455
120,00001;4,00028;1590,94501;0,02487
121,20001;4,04017;1600,94704;0,02519
122,40001;4,07977;1609,29449;0,02550
123,60001;4,11994;1618,81372;0,02582
124,80001;4,15982;1627,43069;0,02614
126,00001;4,19886;1635,83457;0,02645
127,20001;4,23960;1645,48550;0,02678
128,40001;4,28034;1653,83611;0,02711
129,60001;4,31965;1661,19337;0,02743
130,80001;4,36011;1669,93253;0,02777
132,00001;4,39999;1677,71280;0,02810
133,20001;4,44017;1686,35473;0,02844
134,40001;4,47948;1692,31147;0,02877
135,60001;4,51994;1700,96587;0,02911
136,80001;4,55982;1708,01934;0,02945
138,00001;4,59943;1713,45267;0,02978
139,20001;4,63960;1720,48099;0,03013
140,40001;4,68062;1728,08263;0,03048
141,60001;4,71965;1734,14256;0,03082
142,80001;4,75954;1740,92650;0,03118
144,00001;4,79971;1746,61987;0,03153
145,20001;4,83931;1751,84645;0,03188
146,40001;4,87977;1758,75891;0,03224
147,60001;4,92022;1764,86596;0,03261
148,80001;4,96011;1769,74144;0,03297
150,00001;4,99999;1775,50074;0,03334
151,20001;5,03988;1780,71167;0,03371
152,40001;5,07920;1784,26187;0,03407
153,60001;5,11965;1789,95524;0,03445
154,80001;5,15982;1795,18182;0,03482
156,00001;5,20028;1799,41505;0,03520
157,20001;5,23988;1804,55707;0,03558
158,40001;5,28005;1808,32967;0,03597
159,60001;5,31937;1812,29338;0,03634
160,80001;5,35982;1816,78981;0,03674
162,00001;5,39999;1820,79133;0,03713
163,20001;5,44016;1824,88970;0,03752
164,40001;5,47977;1827,86975;0,03791
165,60001;5,51965;1830,73040;0,03831
166,80001;5,56039;1834,97313;0,03871
168,00001;5,59971;1837,21986;0,03911
169,20001;5,63988;1840,10249;0,03951
170,40001;5,67977;1843,48039;0,03991
171,60001;5,71908;1844,83714;0,04031
172,80001;5,75982;1848,66935;0,04073
174,00001;5,80085;1851,71496;0,04115
175,20001;5,83959;1853,08438;0,04155
176,40001;5,88005;1856,09870;0,04198
177,60001;5,91994;1857,87529;0,04240
178,80001;5,95925;1859,80238;0,04282
180,00001;5,99999;1862,87947;0,04325
181,20001;6,04016;1864,22057;0,04368
182,40001;6,08005;1865,65556;0,04411
183,60001;6,11994;1868,05893;0,04454
184,80001;6,15982;1869,42518;0,04497
186,00001;6,19942;1870,12702;0,04541
187,20001;6,23988;1872,59298;0,04586
188,40001;6,28062;1873,56137;0,04630
189,60001;6,31965;1874,49194;0,04674
190,80001;6,35982;1875,98653;0,04719
192,00001;6,39999;1876,96740;0,04764
193,20001;6,44016;1877,92294;0,04809
194,40001;6,47977;1878,44317;0,04853
195,60001;6,52022;1878,38357;0,04899
196,80001;6,55982;1879,32681;0,04943
198,00001;6,59942;1878,80341;0,04989
199,01201;6,63304;1879,83755;0,05027
200,21201;6,67350;1880,83388;0,05073
201,41201;6,71338;1880,79011;0,05119
202,61201;6,75384;1881,30401;0,05166
203,81201;6,79316;1879,57436;0,05211
205,01201;6,83361;1882,06546;0,05259
206,21201;6,87350;1881,00003;0,05306
207,41201;6,91424;1881,78029;0,05354
208,61201;6,95298;1881,06261;0,05400
209,81201;6,99344;1881,65493;0,05448
211,01201;7,03333;1881,21311;0,05495
212,21201;7,07293;1880,23858;0,05542
213,41201;7,11424;1882,07477;0,05592
214,61201;7,15384;1881,13786;0,05639
215,81201;7,19287;1879,52723;0,05686
217,01201;7,23390;1880,77129;0,05736
218,21201;7,27350;1879,99103;0,05784
219,41201;7,31196;1878,37426;0,05832
220,61201;7,35441;1880,32947;0,05883
221,81201;7,39401;1879,28602;0,05932
223,01201;7,43361;1878,29584;0,05981
224,21201;7,47350;1878,58734;0,06030
225,41201;7,51395;1878,13919;0,06080
226,61201;7,55327;1876,75431;0,06128
227,81201;7,59372;1876,40339;0,06178
229,01201;7,63418;1875,92395;0,06227
230,21201;7,67350;1874,99952;0,06277
231,41201;7,71338;1873,59266;0,06327
232,61201;7,75298;1874,22875;0,06376
233,81201;7,79344;1872,42385;0,06426
235,01201;7,83418;1872,11670;0,06477
236,21201;7,87350;1872,12303;0,06526
237,41201;7,91367;1870,15217;0,06577
238,61201;7,95327;1870,02681;0,06627
239,81201;7,99372;1870,13019;0,06678
241,01201;8,03332;1868,83602;0,06728
242,21201;8,07349;1867,55769;0,06779
243,41201;8,11367;1867,25687;0,06830
244,61201;8,15327;1867,08756;0,06881
245,81201;8,19258;1863,56567;0,06931
247,01201;8,23418;1864,96321;0,06983
248,21201;8,27406;1864,10453;0,07034
249,41201;8,31338;1863,69717;0,07085
250,61201;8,35384;1862,91393;0,07137
251,81201;8,39372;1862,25902;0,07189
253,01201;8,43247;1859,89328;0,07239
254,21201;8,47378;1860,88979;0,07292
255,41201;8,51367;1859,51721;0,07343
256,61201;8,55298;1857,30811;0,07394
257,81201;8,59401;1858,00064;0,07446
259,01201;8,63304;1856,75994;0,07498
260,21201;8,67406;1855,82303;0,07550
261,41201;8,71338;1855,13981;0,07602
262,61201;8,75384;1854,35023;0,07654
263,81201;8,79287;1851,97517;0,07705
265,01201;8,83361;1853,04359;0,07758
266,21201;8,87349;1851,69615;0,07810
267,41201;8,91452;1851,07272;0,07863
268,61201;8,95298;1849,18959;0,07914
269,81201;8,99401;1849,07354;0,07967
271,01201;9,03304;1847,52885;0,08019
272,21201;9,07264;1846,57313;0,08071
273,41201;9,11395;1847,36587;0,08125
274,61201;9,15355;1846,52917;0,08177
275,81201;9,19344;1844,63356;0,08230
277,01201;9,23389;1844,53949;0,08283
278,21201;9,27349;1844,04124;0,08336
279,41201;9,31253;1841,46874;0,08388
280,61201;9,35441;1842,34921;0,08442
281,81201;9,39372;1841,18357;0,08495
283,01201;9,43361;1839,91771;0,08547
284,21201;9,47292;1839,25964;0,08600
285,41201;9,51338;1839,23151;0,08654
286,61201;9,55327;1837,47355;0,08706
287,81201;9,59344;1836,59624;0,08759
289,01201;9,63389;1835,64685;0,08812
290,21201;9,67378;1834,81965;0,08865
291,41201;9,71338;1833,20269;0,08918
292,61201;9,75327;1833,35319;0,08972
293,81201;9,79315;1831,09716;0,09025
295,01201;9,83361;1830,76803;0,09079
296,21201;9,87349;1830,00360;0,09131
297,41201;9,91338;1829,39880;0,09185
298,61201;9,95326;1828,80033;0,09239
299,81201;9,99372;1828,35534;0,09292
301,01201;10,03361;1827,65350;0,09347
302,21201;10,07321;1826,30289;0,09400
303,41201;10,11338;1825,77036;0,09454
304,61201;10,15326;1825,06833;0,09508
305,81201;10,19230;1823,55177;0,09561
307,01201;10,23475;1824,10646;0,09617
308,21201;10,27378;1823,34501;0,09671
309,41201;10,31309;1822,66496;0,09725
310,61201;10,35383;1822,46771;0,09781
311,81201;10,39372;1822,13541;0,09835
313,01201;10,43275;1819,25278;0,09889
314,21201;10,47378;1819,97977;0,09945
315,41201;10,51395;1819,36864;0,10000
316,61202;10,55355;1818,52896;0,10055
317,81202;10,59372;1817,76751;0,10111
319,01202;10,63304;1816,49532;0,10166
320,21202;10,67378;1815,91883;0,10222
321,41202;10,71309;1814,12324;0,10278
322,61202;10,75383;1813,40575;0,10333
323,81202;10,79344;1812,39061;0,10388
325,01202;10,83361;1811,11842;0,10443
326,21202;10,87349;1809,86505;0,10499
326,26802;10,87577;1041,11042;0,10939