File: 02_Appendices/Appendix_C_Experimental_Data/C_1_Materials_Tests/C_1_1_Tensile_tests/C_1_1_1_Quantun_70_30/Specimen_RawData_3.csv
Text Inputs : Specimen label;"1"
Dimension : Length;50,00000;mm
Dimension : Final length;100,00000;mm
Test : Rate 1;2,00000;mm/min
General : Unique Identifier;"{F7CA26C4-7B14-46D9-A42B-F316DA7B197D}"

Time;Extension;Load;Strain 1
(sec);(mm);(N);(mm/mm)
0,00000;0,00000;6,63855;0,00008
1,50000;0,05014;51,13633;0,00041
3,00000;0,09971;86,06463;0,00077
4,50000;0,14957;96,83107;0,00094
6,00000;0,20057;98,09698;0,00100
7,50000;0,25043;100,06164;0,00106
9,00000;0,30000;101,24920;0,00108
10,50000;0,35014;102,49630;0,00110
12,00000;0,40000;103,57733;0,00112
13,50000;0,44986;108,67856;0,00116
15,00000;0,49943;120,84565;0,00126
16,50000;0,55014;149,48202;0,00151
18,00000;0,60000;177,18463;0,00178
19,50000;0,65100;207,76372;0,00207
21,00000;0,70028;235,41620;0,00234
22,50000;0,74986;264,51633;0,00264
24,00000;0,79943;294,95757;0,00296
25,50000;0,84986;324,20496;0,00328
27,00000;0,89971;351,58170;0,00358
28,50000;0,94986;377,94947;0,00388
30,00000;1,00000;403,54328;0,00418
31,50000;1,04957;428,69844;0,00447
33,00000;1,10028;454,10739;0,00477
34,50000;1,15014;478,52304;0,00506
36,00000;1,20057;503,59671;0,00536
37,50000;1,24957;528,27555;0,00565
39,00000;1,30028;553,46829;0,00595
40,50000;1,34986;577,50167;0,00624
42,00000;1,40000;601,76379;0,00654
43,50000;1,44986;626,41134;0,00684
45,00000;1,49971;649,61435;0,00714
46,50000;1,55014;673,98925;0,00744
48,00000;1,60028;696,63450;0,00773
49,50000;1,65014;719,34559;0,00802
51,00000;1,69971;741,43936;0,00830
52,50000;1,75043;764,38542;0,00860
54,00000;1,80000;785,57050;0,00888
55,50000;1,84986;807,14105;0,00917
57,00000;1,89971;827,62418;0,00945
58,50000;1,94957;847,84105;0,00972
60,00000;2,00028;868,71283;0,01000
61,50000;2,05042;888,21836;0,01028
63,00000;2,10000;908,60138;0,01056
64,50000;2,14957;926,66550;0,01083
66,00000;2,20028;946,39044;0,01112
67,50000;2,25014;965,06570;0,01140
69,00000;2,30028;984,75609;0,01168
70,50000;2,35014;1004,24914;0,01196
72,00000;2,39943;1022,43554;0,01223
73,50000;2,44957;1041,69669;0,01252
75,00000;2,49943;1059,89249;0,01280
76,50000;2,55014;1079,27592;0,01309
78,00000;2,59971;1097,78186;0,01338
79,50000;2,65099;1117,13391;0,01368
81,00000;2,70028;1134,59025;0,01396
82,50000;2,75014;1152,63248;0,01425
84,00000;2,79971;1169,83503;0,01454
85,50000;2,85014;1187,94935;0,01484
87,00000;2,89971;1205,87880;0,01513
88,50000;2,94985;1223,99945;0,01543
90,00000;3,00000;1241,49648;0,01574
91,50000;3,04957;1259,12512;0,01604
93,00000;3,10028;1277,33033;0,01635
94,50000;3,15042;1294,59864;0,01666
96,00000;3,20057;1311,52850;0,01696
97,50000;3,24985;1328,44904;0,01728
99,00000;3,30028;1345,92103;0,01760
100,50000;3,34985;1361,96101;0,01791
102,00000;3,40000;1379,21050;0,01823
103,50000;3,44957;1395,62031;0,01854
105,00000;3,49943;1411,86081;0,01886
106,50001;3,55014;1428,75938;0,01919
108,00001;3,60028;1445,01561;0,01952
109,50001;3,65042;1461,05243;0,01986
111,00001;3,69971;1477,33688;0,02019
112,50001;3,75042;1491,49997;0,02053
114,00001;3,80000;1507,21408;0,02086
115,50001;3,84985;1521,68116;0,02120
117,00001;3,89971;1537,11634;0,02154
118,50001;3,94928;1550,56501;0,02188
120,00001;4,00028;1565,82482;0,02222
121,50001;4,05014;1580,00048;0,02258
123,00001;4,10028;1594,78709;0,02293
124,50001;4,14957;1608,79977;0,02328
126,00001;4,20085;1623,73055;0,02365
127,50001;4,25014;1636,17637;0,02401
129,00001;4,30028;1650,07636;0,02437
130,50001;4,35014;1662,59743;0,02473
132,00001;4,39943;1676,48178;0,02509
133,50001;4,44957;1687,83106;0,02546
135,00001;4,49943;1699,70971;0,02583
136,50001;4,55014;1713,18986;0,02622
138,00001;4,60000;1724,58924;0,02660
139,50001;4,65099;1736,78137;0,02699
141,00001;4,70028;1747,09354;0,02737
142,50001;4,75014;1758,07290;0,02776
144,00001;4,79942;1767,63926;0,02815
145,50001;4,85014;1779,11073;0,02854
147,00001;4,89971;1789,08128;0,02893
148,50001;4,94985;1799,01440;0,02934
150,00001;4,99971;1808,41144;0,02975
151,50001;5,04985;1818,30674;0,03016
153,00001;5,10028;1827,67566;0,03058
154,50001;5,15042;1836,89110;0,03100
156,00001;5,20056;1846,40102;0,03143
157,50001;5,24985;1854,65459;0,03186
159,00001;5,29971;1863,14303;0,03228
160,50001;5,34985;1870,55673;0,03272
162,00001;5,39971;1878,11144;0,03315
163,50001;5,44985;1886,16738;0,03360
165,00001;5,49971;1893,02657;0,03404
166,50001;5,55042;1900,71277;0,03451
168,00001;5,60028;1907,31809;0,03496
169,50001;5,65071;1914,22105;0,03542
171,00001;5,69971;1919,78272;0,03588
172,50001;5,75042;1926,02780;0,03635
174,00001;5,79999;1930,69968;0,03681
175,50001;5,84985;1936,40254;0,03729
177,00001;5,89971;1941,29068;0,03776
178,50001;5,94928;1946,11922;0,03824
180,00001;6,00028;1951,33332;0,03873
181,50001;6,05014;1955,52576;0,03922
183,00001;6,10028;1960,37628;0,03972
184,50001;6,14957;1964,48434;0,04022
186,00001;6,20056;1968,54826;0,04073
187,50001;6,24985;1971,92300;0,04123
189,00001;6,30028;1975,76769;0,04174
190,50001;6,34985;1979,16124;0,04225
192,00001;6,39971;1982,30725;0,04277
193,50001;6,44957;1984,70745;0,04329
195,00001;6,49971;1987,35520;0,04382
196,50001;6,54985;1990,21287;0,04435
198,00001;6,59999;1992,16809;0,04489
199,50001;6,65099;1995,53967;0,04544
201,00001;6,70028;1996,86512;0,04597
202,50001;6,74985;1998,22504;0,04651
204,00001;6,79971;1999,89825;0,04706
205,50001;6,84957;2001,02311;0,04761
207,00001;6,89971;2002,60244;0,04816
208,50001;6,94985;2003,71481;0,04872
210,00001;6,99999;2004,99948;0,04929
211,50001;7,04985;2005,75460;0,04985
212,96201;7,09885;2006,03660;0,05040
214,46201;7,14900;2007,40583;0,05097
215,96201;7,19914;2007,74744;0,05155
217,46201;7,24871;2007,78190;0,05213
218,96201;7,29885;2007,91657;0,05271
220,46201;7,34871;2007,75992;0,05330
221,96201;7,39828;2007,83834;0,05388
223,46201;7,44871;2008,21441;0,05448
224,96201;7,49800;2007,18027;0,05507
226,46201;7,54928;2008,22372;0,05567
227,96201;7,59885;2008,21124;0,05627
229,46201;7,64928;2008,37422;0,05687
230,96201;7,69828;2006,70715;0,05746
232,46201;7,74928;2006,80122;0,05807
233,96201;7,79885;2005,54784;0,05867
235,46201;7,84871;2004,70183;0,05927
236,96201;7,89800;2003,23854;0,05988
238,46201;7,94785;2002,15746;0,06050
239,96201;7,99828;2001,58712;0,06111
241,46201;8,04899;2001,12034;0,06173
242,96201;8,09914;2000,57197;0,06236
244,46201;8,14842;1999,52535;0,06299
245,96201;8,19942;1999,72894;0,06363
247,46201;8,24871;1997,59211;0,06425
248,96201;8,29885;1997,18159;0,06489
250,46201;8,34871;1996,86829;0,06552
251,96201;8,39857;1995,43312;0,06615
253,46201;8,44842;1993,73793;0,06679
254,96201;8,49828;1992,60674;0,06743
256,46201;8,54842;1991,33456;0,06807
257,96201;8,59857;1990,19089;0,06871
259,46201;8,64985;1990,56063;0,06937
260,96201;8,69914;1988,47372;0,07001
262,46201;8,74871;1985,93885;0,07065
263,96201;8,79828;1985,26829;0,07129
265,46201;8,84842;1983,51033;0,07194
266,96201;8,89857;1982,89622;0,07258
268,46201;8,94814;1980,85643;0,07322
269,96201;8,99857;1980,78118;0,07388
271,46201;9,04785;1978,40910;0,07453
272,96201;9,09913;1978,38731;0,07519
274,46201;9,14899;1976,49784;0,07584
275,96201;9,19942;1976,38497;0,07651
277,46201;9,24899;1974,02555;0,07716
278,96201;9,29913;1973,21083;0,07783
280,46201;9,34871;1971,67546;0,07848
281,96201;9,39856;1969,35982;0,07914
283,46201;9,44785;1968,10644;0,07979
284,96201;9,49743;1965,92882;0,08045
286,46201;9,54899;1967,05051;0,08114
287,96201;9,59885;1965,21748;0,08180
289,46201;9,64928;1964,47801;0,08247
290,96201;9,69857;1963,15572;0,08313
292,46201;9,74899;1962,59785;0,08380
293,96201;9,79885;1960,95910;0,08447
295,46201;9,84871;1959,00705;0,08513
296,96201;9,89799;1956,39692;0,08580
298,46201;9,94814;1955,69191;0,08647
299,96201;9,99828;1954,72371;0,08714
301,46201;10,04928;1954,10326;0,08782
302,96201;10,09856;1952,42371;0,08849
304,46201;10,14842;1950,44968;0,08916
305,96201;10,19913;1950,03916;0,08984
307,46201;10,24871;1948,56022;0,09051
308,96201;10,29885;1947,52309;0,09119
310,46201;10,34899;1946,59550;0,09186
311,96201;10,39828;1945,52392;0,09254
313,46201;10,44842;1944,48978;0,09322
314,96201;10,49828;1942,51575;0,09389
316,46202;10,54871;1942,34662;0,09456
317,96202;10,59856;1940,44467;0,09524
319,46202;10,64985;1941,05562;0,09594
320,96202;10,69913;1937,76861;0,09661
322,46202;10,74871;1937,34877;0,09728
323,96202;10,79856;1936,07658;0,09796
325,46202;10,84842;1935,31513;0,09864
326,96202;10,89828;1933,43833;0,09933
328,46202;10,94842;1931,89979;0,10001
329,96202;10,99885;1932,22258;0,10069
331,46202;11,04814;1929,88496;0,10137
332,96202;11,09913;1929,94755;0,10207
334,46202;11,14899;1928,55019;0,10275
335,96202;11,19913;1927,51605;0,10344
337,46202;11,24842;1926,46328;0,10412
338,96202;11,29913;1926,50706;0,10482
340,46202;11,34842;1925,12218;0,10549
341,96202;11,39885;1924,52688;0,10618
343,46202;11,44814;1922,75960;0,10685
344,96202;11,49799;1921,51237;0,10754
346,46202;11,54899;1921,36206;0,10824
347,96202;11,59913;1920,94222;0,10893
349,46202;11,64871;1919,34723;0,10961
350,96202;11,69856;1919,31594;0,11029
352,46202;11,74899;1918,19724;0,11097
353,96202;11,79885;1917,33241;0,11165
355,46202;11,84870;1915,09202;0,11233
356,96202;11,89828;1914,88527;0,11302
358,46202;11,94785;1913,14612;0,11370
359,96202;11,99856;1914,03925;0,11439
361,46202;12,04927;1912,44427;0,11508
362,96202;12,09885;1912,42862;0,11577
364,46202;12,14842;1911,29744;0,11645
365,96202;12,19885;1911,40715;0,11714
367,46202;12,24899;1910,37618;0,11783
368,96202;12,29885;1910,48905;0,11852
370,46202;12,34899;1908,88792;0,11921
371,96202;12,39828;1909,23251;0,11989
373,46202;12,44842;1907,92587;0,12059
374,96202;12,49799;1907,25848;0,12127
376,46202;12,54870;1907,28363;0,12197
377,96202;12,59799;1905,64487;0,12266
379,46202;12,64984;1907,25215;0,12337
380,96202;12,69913;1905,88608;0,12405
382,46202;12,74899;1904,91788;0,12474
383,96202;12,79856;1904,27862;0,12543
385,46202;12,84842;1904,29743;0,12611
386,96202;12,89828;1901,64335;0,12679
388,46202;12,94870;1902,10082;0,12747
389,96202;12,99856;1902,07902;0,12816
391,46202;13,04785;1900,68465;0,12884
392,96202;13,09885;1901,02607;0,12954
394,46202;13,14899;1899,89805;0,13023
395,96202;13,19913;1899,96697;0,13092
397,46202;13,24842;1898,80766;0,13161
398,96202;13,29913;1899,36850;0,13231
400,46202;13,34842;1898,80766;0,13300
401,96202;13,39856;1897,62954;0,13369
403,46202;13,44785;1896,43558;0,13437
404,61202;13,48659;1052,93319;0,15378