File: 02_Appendices/Appendix_C_Experimental_Data/C_1_Materials_Tests/C_1_1_Tensile_tests/C_1_1_1_Quantun_70_30/Specimen_RawData_9.csv
Text Inputs : Specimen label;"1"
Dimension : Length;50,00000;mm
Dimension : Final length;100,00000;mm
Test : Rate 1;2,00000;mm/min
General : Unique Identifier;"{F406A3CB-6C5B-4562-A6FE-F41218412086}"

Time;Extension;Load;Strain 1
(sec);(mm);(N);(mm/mm)
0,00000;0,00000;10,49356;0,00009
1,40000;0,04644;51,65110;0,00037
2,80000;0,09316;86,97421;0,00073
4,20000;0,13960;108,80792;0,00100
5,60000;0,18689;110,18977;0,00108
7,00000;0,23362;111,33973;0,00113
8,40000;0,27977;110,56891;0,00115
9,80000;0,32593;110,49684;0,00117
11,20000;0,37293;111,40553;0,00118
12,60000;0,42023;113,03178;0,00120
14,00000;0,46667;113,24486;0,00121
15,40000;0,51339;128,26023;0,00132
16,80000;0,56011;148,33922;0,00149
18,20000;0,60598;172,05612;0,00171
19,60000;0,65356;200,51701;0,00195
21,00000;0,70028;231,71341;0,00227
22,40000;0,74701;262,23923;0,00259
23,80000;0,79373;291,30175;0,00291
25,20000;0,83989;320,09480;0,00323
26,60000;0,88718;348,64659;0,00355
28,00000;0,93333;375,27443;0,00386
29,40000;0,98034;402,71385;0,00418
30,80000;1,02649;428,58650;0,00449
32,20000;1,07407;455,03890;0,00481
33,60000;1,11966;480,28491;0,00512
35,00000;1,16610;504,37781;0,00543
36,40000;1,21282;529,58936;0,00575
37,80000;1,25897;554,75077;0,00605
39,20000;1,30712;580,22551;0,00637
40,60000;1,35299;603,14965;0,00666
42,00000;1,40000;627,70005;0,00697
43,40000;1,44615;649,54315;0,00727
44,80000;1,49231;671,90956;0,00757
46,20000;1,54017;693,75266;0,00786
47,60000;1,58689;714,26095;0,00813
49,00000;1,63362;732,66979;0,00841
50,40000;1,68006;754,73227;0,00869
51,80000;1,72678;773,86810;0,00898
53,20000;1,77350;793,50211;0,00925
54,60000;1,82051;812,31836;0,00952
56,00000;1,86723;830,90896;0,00980
57,40000;1,91367;849,18309;0,01007
58,80000;1,96040;866,32920;0,01034
60,20000;2,00684;884,61898;0,01060
61,60000;2,05356;902,26643;0,01087
63,00000;2,10000;919,20579;0,01114
64,40000;2,14644;936,72471;0,01141
65,80000;2,19373;954,72625;0,01169
67,20000;2,24045;971,33964;0,01196
68,60000;2,28661;988,92450;0,01223
70,00000;2,33333;1006,23351;0,01250
71,40000;2,37948;1022,18576;0,01277
72,80000;2,42735;1040,77011;0,01306
74,20000;2,47350;1056,33074;0,01333
75,60000;2,51994;1073,38596;0,01360
77,00000;2,56638;1089,34445;0,01388
78,40000;2,61253;1106,36214;0,01416
79,80000;2,66011;1123,05386;0,01445
81,20000;2,70655;1138,33873;0,01473
82,60000;2,75327;1154,55734;0,01502
84,00000;2,79943;1169,92677;0,01530
85,40000;2,84672;1186,43055;0,01559
86,80000;2,89373;1201,58382;0,01587
88,20000;2,94017;1217,82124;0,01616
89,60000;2,98689;1232,56398;0,01645
91,00000;3,03276;1247,73290;0,01674
92,40000;3,08062;1263,97340;0,01704
93,80000;3,12706;1278,52196;0,01733
95,20000;3,17379;1293,76287;0,01763
96,60000;3,21994;1306,88259;0,01793
98,00000;3,26638;1322,11419;0,01822
99,40000;3,31424;1337,88781;0,01853
100,80000;3,36011;1350,40581;0,01882
102,20000;3,40655;1365,07340;0,01913
103,60000;3,45327;1378,16174;0,01944
105,00000;3,49971;1392,70080;0,01975
106,40001;3,54615;1405,95837;0,02005
107,80001;3,59287;1419,98045;0,02037
109,20001;3,63960;1433,11890;0,02069
110,60001;3,68632;1447,09395;0,02101
112,00001;3,73276;1459,38322;0,02131
113,40001;3,78005;1472,79119;0,02163
114,80001;3,82621;1484,58537;0,02195
116,20001;3,87322;1497,81471;0,02227
117,60001;3,91937;1508,90388;0,02259
119,00001;3,96695;1521,73219;0,02292
120,40001;4,01367;1533,40735;0,02325
121,80001;4,06011;1545,14508;0,02358
123,20001;4,10712;1556,29069;0,02392
124,60001;4,15270;1566,79396;0,02424
126,00001;4,20085;1579,25859;0,02459
127,40001;4,24672;1589,65532;0,02493
128,80001;4,29373;1601,07054;0,02527
130,20001;4,34017;1611,11001;0,02561
131,60001;4,38632;1621,90460;0,02595
133,00001;4,43361;1632,68354;0,02630
134,40001;4,48005;1641,14069;0,02665
135,80001;4,52706;1651,64080;0,02700
137,20001;4,57350;1661,12874;0,02735
138,60001;4,61994;1670,60439;0,02771
140,00001;4,66666;1679,24948;0,02806
141,40001;4,71282;1687,81299;0,02842
142,80001;4,75982;1696,99714;0,02879
144,20001;4,80598;1704,78057;0,02916
145,60001;4,85356;1714,07424;0,02953
147,00001;4,89971;1720,34111;0,02989
148,40001;4,94586;1728,14969;0,03027
149,80001;4,99259;1735,51943;0,03064
151,20001;5,03931;1743,88252;0,03103
152,60001;5,08660;1751,21166;0,03142
154,00001;5,13333;1758,63784;0,03181
155,40001;5,18005;1765,51268;0,03220
156,80001;5,22649;1771,99263;0,03259
158,20001;5,27236;1777,39765;0,03298
159,60001;5,32022;1784,31943;0,03339
161,00001;5,36723;1790,96851;0,03379
162,40001;5,41367;1796,18895;0,03420
163,80001;5,46068;1802,20194;0,03461
165,20001;5,50683;1807,40971;0,03502
166,60001;5,55384;1811,65226;0,03543
168,00001;5,60056;1816,99488;0,03584
169,40001;5,64729;1822,13988;0,03626
170,80001;5,69344;1826,52976;0,03667
172,20001;5,74045;1831,31769;0,03709
173,60001;5,78660;1834,16288;0,03752
175,00001;5,83276;1838,19868;0,03794
176,40001;5,87977;1843,05552;0,03837
177,80001;5,92592;1845,33354;0,03880
179,20001;5,97350;1850,53498;0,03925
180,60001;6,01965;1852,59357;0,03968
182,00001;6,06638;1856,67016;0,04013
183,40001;6,11310;1860,07004;0,04057
184,80001;6,15868;1862,35420;0,04101
186,20001;6,20683;1865,34040;0,04148
187,60001;6,25355;1868,58978;0,04192
189,00001;6,30028;1871,80154;0,04238
190,40001;6,34672;1873,53753;0,04284
191,80001;6,39316;1875,50522;0,04330
193,20001;6,44016;1877,93672;0,04376
194,60001;6,48689;1879,84817;0,04423
196,00001;6,53390;1881,55286;0,04470
197,40001;6,57976;1883,68354;0,04517
198,80001;6,62734;1886,38456;0,04564
200,20001;6,67350;1885,98335;0,04611
201,60001;6,72022;1888,13619;0,04659
203,00001;6,76666;1889,33630;0,04706
204,40001;6,81310;1890,03497;0,04754
205,80001;6,86068;1891,64244;0,04803
207,20001;6,90683;1892,36309;0,04851
208,60001;6,95327;1892,77045;0,04899
210,00001;6,99999;1894,59417;0,04948
211,40001;7,04615;1893,54122;0,04997
212,71601;7,09059;1894,81657;0,05044
214,11601;7,13674;1895,74398;0,05093
215,51601;7,18347;1895,44950;0,05143
216,91601;7,23019;1896,76862;0,05193
218,31601;7,27663;1895,95707;0,05242
219,71601;7,32364;1896,50860;0,05293
221,11601;7,37036;1896,19530;0,05343
222,51601;7,41709;1896,69356;0,05394
223,91601;7,46381;1897,13836;0,05445
225,31601;7,51110;1897,47997;0,05497
226,71601;7,55783;1897,28886;0,05548
228,11601;7,60427;1896,84387;0,05598
229,51601;7,65099;1896,59633;0,05650
230,91601;7,69686;1895,58119;0,05700
232,31601;7,74472;1896,24541;0,05753
233,71601;7,79087;1895,08926;0,05804
235,11601;7,83731;1893,33763;0,05855
236,51601;7,88375;1893,13069;0,05907
237,91601;7,92962;1891,84286;0,05959
239,31601;7,97777;1892,13753;0,06013
240,71601;8,02335;1891,72383;0,06066
242,11601;8,07093;1891,28201;0,06119
243,51601;8,11680;1890,15716;0,06171
244,91601;8,16238;1887,58466;0,06223
246,31601;8,20996;1888,70952;0,06277
247,71601;8,25697;1887,77894;0,06331
249,11601;8,30369;1887,35910;0,06385
250,51601;8,35042;1886,92976;0,06439
251,91601;8,39714;1886,47546;0,06493
253,31601;8,44358;1884,61412;0,06547
254,71601;8,49059;1883,76810;0,06601
256,11601;8,53731;1883,22291;0,06656
257,51601;8,58375;1882,67455;0,06710
258,91601;8,63133;1882,22639;0,06765
260,31601;8,67777;1880,94489;0,06819
261,71601;8,72364;1878,88313;0,06872
263,11601;8,77008;1878,07158;0,06926
264,51601;8,81651;1876,58314;0,06981
265,91601;8,86438;1877,55451;0,07036
267,31601;8,91110;1876,17261;0,07091
268,71601;8,95725;1875,53037;0,07145
270,11601;9,00398;1873,72547;0,07200
271,51601;9,04956;1872,09304;0,07255
272,91601;9,09771;1872,43763;0,07311
274,31601;9,14386;1871,51320;0,07365
275,71601;9,19059;1870,17210;0,07420
277,11601;9,23703;1869,78672;0,07475
278,51601;9,28261;1867,69981;0,07529
279,91601;9,33047;1867,44928;0,07586
281,31601;9,37663;1866,14264;0,07641
282,71601;9,42392;1866,11116;0,07698
284,11601;9,46979;1863,55747;0,07752
285,51601;9,51765;1865,36871;0,07809
286,91601;9,56352;1862,29479;0,07864
288,31601;9,61025;1861,83732;0,07920
289,71601;9,65668;1861,37985;0,07976
291,11601;9,70312;1858,61606;0,08031
292,51601;9,75156;1859,89141;0,08088
293,91601;9,79771;1858,22751;0,08143
295,31601;9,84415;1857,30942;0,08199
296,71601;9,89059;1856,01227;0,08255
298,11601;9,93703;1855,65818;0,08311
299,51601;9,98460;1854,95634;0,08368
300,91601;10,03133;1852,55297;0,08423
302,31601;10,07777;1852,39315;0,08479
303,71601;10,12421;1850,70727;0,08535
305,11601;10,17007;1850,19653;0,08591
306,51601;10,21680;1848,62670;0,08647
307,91601;10,26381;1848,67997;0,08704
309,31601;10,31053;1847,48936;0,08760
310,71601;10,35697;1846,10747;0,08816
312,11601;10,40284;1844,80716;0,08873
313,51601;10,45042;1844,77568;0,08930
314,91601;10,49657;1843,15257;0,08987
316,31602;10,54386;1843,78866;0,09044
317,71602;10,58945;1842,03088;0,09100
319,11602;10,63703;1841,73323;0,09158
320,51602;10,68375;1841,09714;0,09214
321,91602;10,73019;1839,32669;0,09270
323,31602;10,77720;1839,22648;0,09327
324,71602;10,82307;1836,75420;0,09383
326,11602;10,87178;1837,87905;0,09441
327,51602;10,91765;1835,81728;0,09497
328,91602;10,96438;1835,92066;0,09554
330,31602;11,01081;1834,79898;0,09610
331,71602;11,05697;1834,78333;0,09668
333,11602;11,10455;1832,83743;0,09725
334,51602;11,15099;1832,35481;0,09781
335,91602;11,19742;1830,96044;0,09839
337,31602;11,24358;1830,04234;0,09896
338,71602;11,29059;1829,88569;0,09954
340,11602;11,33731;1829,45635;0,10011
341,51602;11,38403;1828,71073;0,10069
342,91602;11,43047;1827,60768;0,10126
344,31602;11,47606;1824,97874;0,10182
345,71602;11,52420;1826,07230;0,10241
347,11602;11,57036;1825,39243;0,10298
348,51602;11,61708;1824,02004;0,10355
349,91602;11,66295;1822,24642;0,10412
351,31602;11,70882;1821,23743;0,10469
352,71602;11,75697;1821,99888;0,10528
354,11602;11,80312;1821,19049;0,10585
355,51602;11,85013;1820,26606;0,10643
356,91602;11,89685;1819,99970;0,10700
358,31602;11,94329;1818,69008;0,10757
359,71602;11,99058;1818,72137;0,10816
361,11602;12,03702;1817,47731;0,10874
362,51602;12,08346;1817,74050;0,10932
363,29402;12,10996;1018,32850;0,12767