File: 02_Appendices/Appendix_C_Experimental_Data/C_1_Materials_Tests/C_1_1_Tensile_tests/C_1_1_4_Impact Smooth 3D2/Specimen_RawData_2.csv
Text Inputs : Specimen label;"1"
Dimension : Length;50,00000;mm
Dimension : Final length;100,00000;mm
Test : Rate 1;4,00000;mm/min
General : Unique Identifier;"{D787D707-4BD7-4175-BDB0-88711FE09B24}"

Time;Extension;Load;Strain 1
(sec);(mm);(N);(mm/mm)
0,00000;0,00000;6,20328;0,00076
0,30000;0,01678;8,59722;0,00081
0,60000;0,03875;18,22624;0,00113
0,90000;0,05957;26,73976;0,00143
1,20000;0,08003;35,13107;0,00171
1,50000;0,10003;42,48836;0,00197
1,80000;0,12003;50,14017;0,00224
2,10000;0,14006;57,01178;0,00250
2,40000;0,15997;64,25313;0,00275
2,70000;0,18009;70,87719;0,00300
3,00000;0,19991;76,89024;0,00322
3,30000;0,21997;82,57113;0,00343
3,60000;0,24000;87,15533;0,00360
3,90000;0,25991;87,50001;0,00371
4,20000;0,28003;87,31514;0,00376
4,50000;0,30003;87,27127;0,00382
4,80000;0,32006;89,08239;0,00387
5,10000;0,33997;90,38904;0,00392
5,40000;0,35994;89,15133;0,00396
5,70000;0,38006;90,01616;0,00400
6,00000;0,40000;90,84338;0,00403
6,30000;0,41997;91,10658;0,00406
6,60000;0,43994;90,81831;0,00409
6,90000;0,45997;90,97185;0,00411
7,20000;0,48000;90,74624;0,00413
7,50000;0,50000;91,13165;0,00417
7,80000;0,52006;93,89221;0,00421
8,10000;0,54003;95,33984;0,00425
8,40000;0,55994;94,99203;0,00430
8,70000;0,58003;97,17603;0,00440
9,00000;0,60000;101,13354;0,00451
9,30000;0,61997;104,16356;0,00465
9,60000;0,63991;109,75359;0,00484
9,90000;0,65991;114,97076;0,00503
10,20000;0,68006;120,95246;0,00525
10,50000;0,70003;126,22288;0,00548
10,80000;0,72006;132,20146;0,00569
11,10000;0,74008;138,03276;0,00591
11,40000;0,75994;143,39093;0,00612
11,70000;0,78000;149,28490;0,00636
12,00000;0,79994;155,14127;0,00660
12,30000;0,81997;161,77474;0,00684
12,60000;0,83997;167,56844;0,00708
12,90000;0,85989;173,77262;0,00732
13,20000;0,88006;179,57259;0,00757
13,50000;0,90003;185,29423;0,00780
13,80000;0,92000;190,83412;0,00805
14,10000;0,94008;196,73749;0,00828
14,40000;0,95997;202,46538;0,00852
14,70000;0,98000;208,83251;0,00876
15,00000;0,99994;213,93059;0,00900
15,30000;1,02003;219,05375;0,00924
15,60000;1,04003;225,02292;0,00947
15,90000;1,05988;230,28080;0,00970
16,20000;1,08003;235,96170;0,00994
16,50000;1,10003;240,29210;0,01017
16,80000;1,12006;246,56209;0,01039
17,10000;1,14003;251,58497;0,01062
17,40000;1,16000;255,67096;0,01083
17,70000;1,18006;260,20503;0,01105
18,00000;1,19991;264,74537;0,01125
18,30000;1,21997;269,60531;0,01146
18,60000;1,23997;274,33052;0,01166
18,90000;1,25994;278,62643;0,01186
19,20000;1,28003;281,97293;0,01207
19,50000;1,30003;286,69187;0,01227
19,80000;1,32011;291,03167;0,01247
20,10000;1,33997;296,07334;0,01267
20,40000;1,35994;299,51697;0,01287
20,70000;1,38003;304,07298;0,01307
21,00000;1,40000;307,96470;0,01327
21,30000;1,42000;311,93162;0,01347
21,60000;1,43997;317,04849;0,01368
21,90000;1,45994;320,81802;0,01387
22,20000;1,48000;324,99486;0,01407
22,50000;1,50000;329,80780;0,01428
22,80000;1,52008;334,69908;0,01448
23,10000;1,54003;338,16779;0,01468
23,40000;1,55994;342,08456;0,01488
23,70000;1,58003;346,02014;0,01508
24,00000;1,60000;350,50721;0,01529
24,30000;1,61997;354,21720;0,01549
24,60000;1,63994;359,22127;0,01569
24,90000;1,65994;362,42991;0,01589
25,20000;1,68003;366,79790;0,01610
25,50000;1,70000;371,50744;0,01630
25,80000;1,72003;375,19548;0,01650
26,10000;1,74008;380,02722;0,01671
26,40000;1,75997;383,28599;0,01691
26,70000;1,78003;387,77932;0,01711
27,00000;1,80000;391,81202;0,01732
27,30000;1,81997;395,22434;0,01752
27,60000;1,83994;400,47592;0,01773
27,90000;1,85988;403,72219;0,01793
28,20000;1,88008;408,22178;0,01814
28,50000;1,90005;412,85297;0,01835
28,80000;1,92003;415,79842;0,01855
29,10000;1,94003;420,67398;0,01877
29,40000;1,95997;424,38083;0,01897
29,70000;1,98003;428,27572;0,01918
30,00000;1,99994;432,60921;0,01939
30,30000;2,02003;436,29725;0,01961
30,60000;2,04000;441,74944;0,01982
30,90000;2,05985;445,14607;0,02003
31,20000;2,08005;449,11611;0,02024
31,50000;2,10003;452,96396;0,02045
31,80000;2,12005;457,29433;0,02067
32,10000;2,14003;462,39556;0,02088
32,40000;2,16000;464,99944;0,02110
32,70000;2,18008;469,34551;0,02131
33,00000;2,19991;473,71350;0,02153
33,30000;2,21997;476,94091;0,02175
33,60000;2,23997;482,32414;0,02197
33,90000;2,25994;485,36672;0,02219
34,20000;2,28003;489,30855;0,02240
34,50000;2,30003;493,93349;0,02263
34,80000;2,32008;498,29208;0,02284
35,10000;2,34000;502,51596;0,02307
35,40000;2,35997;506,38258;0,02329
35,70000;2,38005;509,83564;0,02351
36,00000;2,39997;513,97802;0,02373
36,30000;2,41997;518,20814;0,02396
36,60000;2,43997;523,00543;0,02419
36,90000;2,45994;526,31120;0,02442
37,20000;2,48003;531,16172;0,02464
37,50000;2,50000;534,58968;0,02487
37,80000;2,52008;539,08615;0,02510
38,10000;2,54003;543,17215;0,02534
38,40000;2,55994;546,73487;0,02556
38,70000;2,58003;550,18789;0,02580
39,00000;2,60000;554,98830;0,02603
39,30000;2,61997;558,79853;0,02626
39,60000;2,63994;563,75563;0,02649
39,90000;2,65994;567,08017;0,02673
40,20000;2,68005;571,47010;0,02697
40,50000;2,70000;575,16131;0,02720
40,80000;2,72005;579,29740;0,02744
41,10000;2,74008;583,92859;0,02768
41,40000;2,75994;587,25006;0,02792
41,70000;2,78000;591,32976;0,02816
42,00000;2,79997;595,13687;0,02839
42,30000;2,81997;599,66156;0,02864
42,60000;2,83994;603,95747;0,02888
42,90000;2,85991;606,87782;0,02912
43,20000;2,88008;610,87920;0,02936
43,50000;2,90005;615,15947;0,02960
43,80000;2,92003;618,88197;0,02984
44,10000;2,94005;623,10584;0,03009
44,40000;2,95994;626,84086;0,03033
44,70000;2,98000;630,90804;0,03058
45,00000;2,99997;634,90006;0,03083
45,30000;3,02005;638,37501;0,03107
45,60000;3,03997;643,52322;0,03132
45,90000;3,05985;645,91719;0,03157
46,20000;3,08002;650,89930;0,03182
46,50000;3,10005;653,55645;0,03207
46,80000;3,12002;657,76152;0,03232
47,10000;3,14003;662,34260;0,03257
47,40000;3,16000;665,35696;0,03283
47,70000;3,18005;668,44025;0,03308
48,00000;3,19991;672,01862;0,03333
48,30000;3,22000;676,59966;0,03359
48,60000;3,23997;680,71699;0,03384
48,90000;3,25988;683,59035;0,03410
49,20000;3,28002;688,10876;0,03435
49,50000;3,30000;690,68442;0,03461
49,80000;3,32011;694,43826;0,03487
50,10000;3,33997;699,05380;0,03512
50,40000;3,35994;702,21545;0,03538
50,70000;3,38005;706,16039;0,03565
51,00000;3,40000;709,76699;0,03591
51,30000;3,41997;712,75625;0,03617
51,60000;3,43997;716,94255;0,03644
51,90000;3,45991;720,59613;0,03670
52,20000;3,48002;724,74475;0,03696
52,50000;3,50000;727,58989;0,03723
52,80000;3,52008;731,78243;0,03750
53,10000;3,54002;736,00942;0,03777
53,40000;3,55991;737,95216;0,03804
53,70000;3,58000;741,86265;0,03831
54,00000;3,60002;745,92670;0,03858
54,30000;3,61997;748,85963;0,03885
54,60000;3,63994;753,33728;0,03912
54,90000;3,65991;756,26075;0,03939
55,20000;3,68002;759,85165;0,03967
55,50000;3,70002;763,12609;0,03995
55,80000;3,72005;766,54777;0,04023
56,10000;3,74008;770,23585;0,04051
56,40000;3,75994;772,91490;0,04079
56,70000;3,78000;776,81602;0,04107
57,00000;3,80000;779,99020;0,04135
57,30000;3,82000;783,26464;0,04164
57,60000;3,83994;787,23775;0,04192
57,90000;3,85991;789,97323;0,04220
58,20000;3,88008;795,12149;0,04249
58,50000;3,90002;796,98274;0,04277
58,80000;3,92002;799,95636;0,04305
59,10000;3,94005;804,05800;0,04334
59,40000;3,95997;806,80288;0,04362
59,70000;3,98002;810,09297;0,04391
60,00000;3,99994;813,02589;0,04420
60,30000;4,02002;815,84593;0,04449
60,60000;4,04000;820,12312;0,04478
60,90000;4,05985;822,92752;0,04507
61,20000;4,08005;825,52200;0,04537
61,50000;4,10005;828,20728;0,04567
61,80000;4,12005;832,37477;0,04596
62,10000;4,14002;836,10667;0,04626
62,40000;4,15999;838,05565;0,04656
62,70000;4,18008;841,17027;0,04685
63,00000;4,19994;843,15063;0,04715
63,30000;4,21997;845,97385;0,04745
63,60000;4,23997;850,09430;0,04775
63,90000;4,25991;852,52579;0,04804
64,20000;4,28002;855,20493;0,04835
64,50000;4,30005;858,10646;0,04865
64,80000;4,32008;860,76986;0,04896
65,10000;4,33999;864,85269;0,04926
65,40000;4,35994;866,36301;0,04956
65,70000;4,38005;869,36802;0,04987
66,00000;4,39997;872,44818;0,05018
66,30000;4,41997;874,90473;0,05048
66,46600;4,43113;877,41148;0,05066