File: 02_Appendices/Appendix_C_Experimental_Data/C_1_Materials_Tests/C_1_1_Tensile_tests/C_1_1_4_Impact Smooth 3D2/Specimen_RawData_5.csv
Text Inputs : Specimen label;"1"
Dimension : Length;50,00000;mm
Dimension : Final length;100,00000;mm
Test : Rate 1;4,00000;mm/min
General : Unique Identifier;"{3D2A4C0C-3144-46BB-A942-5194557997FF}"

Time;Extension;Load;Strain 1
(sec);(mm);(N);(mm/mm)
0,00000;0,00000;8,79924;0,00011
1,20000;0,08003;35,73104;0,00093
2,40000;0,15997;63,05451;0,00183
3,60000;0,23997;85,93164;0,00264
4,80000;0,32006;92,04809;0,00296
6,00000;0,39997;91,92902;0,00304
7,20000;0,48000;94,68331;0,00316
8,40000;0,55997;96,96131;0,00331
9,60000;0,63994;106,23625;0,00363
10,80000;0,72003;128,58697;0,00441
12,00000;0,79997;151,07556;0,00523
13,20000;0,88008;169,65992;0,00598
14,40000;0,95994;184,04861;0,00657
15,60000;1,04000;196,18436;0,00709
16,80000;1,12006;207,08553;0,00759
18,00000;1,19991;217,80813;0,00810
19,20000;1,28006;229,55847;0,00860
20,40000;1,35994;239,55097;0,00908
21,60000;1,43997;251,60839;0,00958
22,80000;1,52006;261,67296;0,01009
24,00000;1,60003;273,60504;0,01062
25,20000;1,68003;286,77483;0,01121
26,40000;1,75997;300,82196;0,01185
27,60000;1,83991;316,60504;0,01252
28,80000;1,92003;332,44137;0,01323
30,00000;1,99997;348,74771;0,01396
31,20000;2,08005;366,00663;0,01471
32,40000;2,16003;381,47634;0,01547
33,60000;2,23997;397,23432;0,01622
34,80000;2,32005;413,58769;0,01698
36,00000;2,39997;429,84076;0,01775
37,20000;2,48003;445,95595;0,01854
38,40000;2,55997;461,97092;0,01934
39,60000;2,63994;479,26428;0,02017
40,80000;2,72005;497,12169;0,02102
42,00000;2,79997;514,46832;0,02188
43,20000;2,88005;531,86822;0,02277
44,40000;2,95997;548,67277;0,02367
45,60000;3,03997;566,92185;0,02458
46,80000;3,12005;584,25595;0,02552
48,00000;3,19991;602,82466;0,02646
49,20000;3,28002;620,49716;0,02744
50,40000;3,35994;638,47364;0,02843
51,60000;3,43997;657,45595;0,02943
52,80000;3,52008;675,15350;0,03045
54,00000;3,60000;693,86321;0,03149
55,20000;3,68002;710,14762;0,03253
56,40000;3,75994;728,20242;0,03361
57,60000;3,83994;746,52354;0,03470
58,80000;3,92002;763,76051;0,03581
60,00000;4,00000;781,25754;0,03693
61,20000;4,08008;797,77073;0,03806
62,40000;4,15999;814,08331;0,03920
63,60000;4,23997;831,41746;0,04035
64,80000;4,32005;847,07830;0,04153
66,00000;4,39997;861,98710;0,04271
67,20000;4,48002;877,67616;0,04390
68,40000;4,55997;892,24037;0,04510
69,60000;4,63994;907,00816;0,04631
70,80000;4,72005;920,00877;0,04753
72,00000;4,79999;933,66737;0,04875
73,20000;4,88008;946,16665;0,04999
74,40000;4,95997;958,48413;0,05124
75,41400;5,02754;968,40141;0,05230
76,61400;5,10740;979,59712;0,05356
77,81400;5,18752;991,03730;0,05484
79,01400;5,26740;1002,06379;0,05613
80,21400;5,34743;1011,75234;0,05742
81,41400;5,42749;1021,92657;0,05873
82,61400;5,50749;1030,99160;0,06004
83,81400;5,58754;1039,76512;0,06136
85,01400;5,66743;1047,67708;0,06269
86,21400;5,74749;1055,64538;0,06404
87,41400;5,82752;1063,76717;0,06540
88,61400;5,90740;1071,27177;0,06676
89,81400;5,98751;1076,99027;0,06813
91,01400;6,06740;1084,13761;0,06952
92,21400;6,14746;1089,71512;0,07092
93,41400;6,22749;1096,01952;0,07232
94,61400;6,30746;1101,16461;0,07373
95,81400;6,38749;1105,28823;0,07515
97,01400;6,46746;1110,37064;0,07658
98,21400;6,54746;1113,68895;0,07802
99,41400;6,62746;1118,53639;0,07947
100,61400;6,70740;1121,91727;0,08092
101,81400;6,78751;1124,10448;0,08237
103,01400;6,86743;1127,33496;0,08384
104,21400;6,94749;1129,84804;0,08533
105,41401;7,02757;1133,12248;0,08682
106,61401;7,10740;1135,77330;0,08831
107,81401;7,18751;1137,51553;0,08981
109,01401;7,26740;1139,03834;0,09133
110,21401;7,34743;1141,66103;0,09285
111,41401;7,42748;1143,51911;0,09438
112,61401;7,50746;1145,52770;0,09590
113,81401;7,58754;1145,90367;0,09744
115,01401;7,66746;1147,27924;0,09898
116,21401;7,74748;1148,02504;0,10053
117,41401;7,82751;1149,36614;0,10207
118,61401;7,90740;1149,79539;0,10363
119,81401;7,98751;1151,44989;0,10520
121,01401;8,06740;1151,04560;0,10676
122,21401;8,14746;1151,75070;0,10832
123,41401;8,22748;1153,42075;0,10990
124,61401;8,30748;1152,80040;0,11148
125,81401;8,38751;1153,03537;0,11306
127,01401;8,46745;1152,74079;0,11465
128,21401;8,54745;1152,70009;0,11624
129,41401;8,62745;1153,90643;0,11784
130,61401;8,70740;1153,53363;0,11943
131,81401;8,78748;1153,24222;0,12104
133,01401;8,86743;1153,11993;0,12264
134,21401;8,94748;1152,74079;0,12425
135,41401;9,02757;1151,84784;0,12586
136,61401;9,10742;1152,89120;0,12748
137,81401;9,18751;1150,90152;0,12909
139,01401;9,26740;1151,29948;0,13070
140,21401;9,34743;1151,38087;0,13234
141,41401;9,42751;1151,34018;0,13396
142,61401;9,50745;1151,53128;0,13558
143,81401;9,58751;1150,05551;0,13721
145,01401;9,66745;1149,90817;0,13884
146,21401;9,74748;1149,82044;0,14048
147,41401;9,82751;1149,67003;0,14212
148,61401;9,90740;1148,98384;0,14376
149,81401;9,98751;1147,86522;0,14541
151,01401;10,06740;1148,38220;0,14705
152,21401;10,14745;1147,99058;0,14870
153,41401;10,22748;1147,72422;0,15035
154,61401;10,30748;1147,62392;0,15200
155,81401;10,38751;1146,11359;0,15365
157,01401;10,46748;1146,38936;0,15530
158,21401;10,54745;1146,31420;0,15696
159,41401;10,62745;1145,32085;0,15861
160,61401;10,70742;1145,29263;0,16026
161,81401;10,78751;1143,68210;0,16192
163,01401;10,86740;1143,58179;0,16359
164,21401;10,94748;1143,96410;0,16525
165,41401;11,02757;1143,28414;0,16693
166,61401;11,10739;1142,66686;0,16859
167,81401;11,18754;1142,09661;0,17027
169,01401;11,26739;1142,30337;0,17193
170,21401;11,34742;1142,01820;0,17362
171,41401;11,42751;1140,92780;0,17530
172,61401;11,50745;1141,75817;0,17698
173,81401;11,58754;1139,85930;0,17865
175,01401;11,66745;1140,13506;0,18032
176,21401;11,74748;1140,16328;0,18201
177,41401;11,82751;1140,20081;0,18369
178,61401;11,90739;1139,57413;0,18537
179,81401;11,98751;1139,06031;0,18705
181,01401;12,06742;1138,01369;0,18873
182,21401;12,14745;1138,43670;0,19042
183,41401;12,22751;1138,98823;0,19211
184,61401;12,30748;1139,00388;0,19380
185,81401;12,38751;1137,61267;0,19549
187,01401;12,46748;1138,24559;0,19719
188,21401;12,54745;1137,43087;0,19889
189,41401;12,62745;1138,18916;0,20058
190,61401;12,70739;1137,75991;0,20227
191,81401;12,78751;1137,13006;0,20397
193,01401;12,86742;1136,97341;0,20566
194,21401;12,94748;1136,85746;0,20736
195,41401;13,02756;1136,87003;0,20905
196,61401;13,10742;1138,09835;0,21075
197,81401;13,18751;1137,01420;0,21245
199,01401;13,26739;1136,45643;0,21414
200,21401;13,34742;1137,07054;0,21585
201,41401;13,42751;1136,54723;0,21755
202,61401;13,50745;1136,63189;0,21925
203,81401;13,58753;1136,36870;0,22096
205,01401;13,66742;1136,41256;0,22266
206,21401;13,74748;1135,61042;0,22438
207,41401;13,82751;1136,29662;0,22609
208,61401;13,90742;1136,12423;0,22780
209,81401;13,98750;1135,78895;0,22951
211,01401;14,06745;1136,08669;0,23122
212,21401;14,14745;1136,67259;0,23292
213,41401;14,22748;1136,82933;0,23464
214,61401;14,30748;1136,34672;0,23636
215,81401;14,38750;1135,18741;0,23807
217,01401;14,46748;1136,50030;0,23979
218,21401;14,54745;1135,71379;0,24151
219,41401;14,62748;1136,11175;0,24323
220,61401;14,70739;1136,58803;0,24495
221,81401;14,78750;1136,14621;0,24666
223,01401;14,86745;1136,37811;0,24839
224,21401;14,94748;1136,04283;0,25012
225,41401;15,02753;1136,98905;0,25185
226,61401;15,10742;1137,03609;0,25357
227,81401;15,18753;1136,05531;0,25530
229,01401;15,26742;1136,73219;0,25701
230,21401;15,34742;1136,92014;0,25873
231,41401;15,42750;1137,17085;0,26046
232,61401;15,50745;1137,70664;0,26219
233,81401;15,58753;1136,94211;0,26391
235,01401;15,66742;1137,56880;0,26563
236,21401;15,74747;1137,06114;0,26736
237,41401;15,82750;1137,63148;0,26909
238,61401;15,90742;1137,65653;0,27082
239,81401;15,98750;1137,28680;0,27255
241,01401;16,06742;1137,49988;0,27428
242,21401;16,14745;1138,31451;0,27602
243,41401;16,22750;1138,19232;0,27776
244,61401;16,30747;1138,96942;0,27949
245,81401;16,38750;1138,09835;0,28122
247,01401;16,46747;1138,74068;0,28295
248,21401;16,54745;1138,80644;0,28468
249,41401;16,62747;1139,16369;0,28641
250,61401;16,70742;1139,27023;0,28814
251,81401;16,78750;1138,44927;0,28988
253,01401;16,86744;1139,53026;0,29161
254,21401;16,94747;1138,62474;0,29336
255,41401;17,02756;1139,50837;0,29510
256,61401;17,10742;1139,75909;0,29683
257,81401;17,18753;1139,08220;0,29858
259,01401;17,26744;1140,94038;0,30032
260,21401;17,34742;1140,14754;0,30207
261,41401;17,42747;1141,48874;0,30382
262,61401;17,50744;1140,90275;0,30556
263,81401;17,58753;1140,31993;0,30729
265,01401;17,66744;1141,36022;0,30903
266,21401;17,74747;1141,24427;0,31078
267,41401;17,82753;1141,59836;0,31251
268,61401;17,90742;1141,69549;0,31425
269,81401;17,98750;1141,60459;0,31599
271,01401;18,06741;1142,34416;0,31774
272,21401;18,14744;1143,02095;0,31948
273,41401;18,22750;1143,45960;0,32122
274,61401;18,30747;1142,98016;0,32296
275,81401;18,38750;1143,15571;0,32471
277,01401;18,46747;1144,83833;0,32645
278,21401;18,54747;1143,44079;0,32820
279,41401;18,62747;1144,52187;0,32995
280,61401;18,70741;1144,75368;0,33169
281,81401;18,78750;1144,78823;0,33344
283,01401;18,86741;1145,68751;0,33519
284,21401;18,94747;1144,45295;0,33692
285,41401;19,02756;1145,56840;0,33868
286,61401;19,10741;1145,49007;0,34042
287,81401;19,18750;1146,74969;0,34216
289,01401;19,26741;1147,84325;0,34390
290,21401;19,34744;1147,18527;0,34565
291,41401;19,42750;1147,21972;0,34739
292,61401;19,50744;1147,91850;0,34914
293,81401;19,58753;1147,88711;0,35088
295,01401;19,66744;1149,24395;0,35263
296,21401;19,74747;1149,19068;0,35439
297,41401;19,82750;1149,00265;0,35614
298,61401;19,90741;1149,68577;0,35789
299,81401;19,98750;1150,03046;0,35964
301,01401;20,06744;1150,96420;0,36138
302,21401;20,14747;1151,69743;0,36314
303,41401;20,22750;1151,81645;0,36488
304,61401;20,30747;1152,09222;0,36662
305,81401;20,38750;1151,72872;0,36836
307,01401;20,46747;1153,54611;0,37011
308,21401;20,54747;1152,88179;0,37186
309,41401;20,62744;1153,68087;0,37360
310,61401;20,70741;1153,71216;0,37535
311,81401;20,78753;1153,94406;0,37709
313,01401;20,86744;1155,55460;0,37884
314,21401;20,94747;1155,02197;0,38059
315,41401;21,02753;1155,34468;0,38233
316,17602;21,07832;634,30616;0,38613