File: 02_Appendices/Appendix_C_Experimental_Data_and_Analysis Reports/C_1_Materials_Tests/C_1_1_Tensile_tests/C_1_1_5_Smooth 3D D20/Specimen_RawData_7.csv
Text Inputs : Specimen label;"1"
Dimension : Length;50,00000;mm
Dimension : Final length;100,00000;mm
Test : Rate 1;4,00000;mm/min
General : Unique Identifier;"{6C02FC47-0A37-4D15-820E-3AA5778B4642}"

Time;Extension;Load;Strain 1
(sec);(mm);(N);(mm/mm)
0,00000;0,00000;-0,24601;0,00000
0,20000;0,01020;-0,37447;0,00000
0,40000;0,02442;14,42156;0,00007
0,60000;0,03900;29,79102;0,00017
0,80000;0,05293;42,89186;0,00026
1,00000;0,06650;55,77338;0,00034
1,20000;0,07997;67,20098;0,00042
1,40000;0,09336;77,84209;0,00050
1,60000;0,10667;82,18189;0,00054
1,80000;0,11997;82,58610;0,00055
2,00000;0,13330;83,09059;0,00056
2,20000;0,14669;83,56686;0,00056
2,40000;0,15997;83,20025;0,00057
2,60000;0,17333;83,88334;0,00057
2,80000;0,18672;82,81798;0,00057
3,00000;0,19997;82,19755;0,00058
3,20000;0,21330;82,59236;0,00058
3,40000;0,22664;83,32559;0,00058
3,60000;0,24003;82,25709;0,00059
3,80000;0,25333;82,46703;0,00059
4,00000;0,26661;82,44510;0,00060
4,20000;0,28006;83,36320;0,00060
4,40000;0,29333;83,38826;0,00060
4,60000;0,30667;83,98361;0,00061
4,80000;0,32000;83,20339;0,00061
5,00000;0,33333;84,29695;0,00062
5,20000;0,34669;83,56373;0,00062
5,40000;0,35994;83,79874;0,00062
5,60000;0,37336;83,99615;0,00062
5,80000;0,38669;84,12148;0,00063
6,00000;0,39997;83,79874;0,00063
6,20000;0,41333;84,10895;0,00063
6,40000;0,42664;83,70160;0,00063
6,60000;0,44000;83,63894;0,00064
6,80000;0,45330;83,94914;0,00064
7,00000;0,46667;85,10537;0,00065
7,20000;0,48006;85,75086;0,00066
7,40000;0,49333;94,57772;0,00072
7,60000;0,50667;105,46325;0,00079
7,80000;0,52000;115,98215;0,00087
8,00000;0,53330;125,60177;0,00094
8,20000;0,54669;137,34899;0,00102
8,40000;0,56000;147,36342;0,00110
8,60000;0,57336;159,20149;0,00117
8,80000;0,58667;168,99972;0,00125
9,00000;0,59997;180,29885;0,00133
9,20000;0,61339;190,00620;0,00140
9,40000;0,62664;201,25832;0,00148
9,60000;0,64000;210,65546;0,00156
9,80000;0,65330;220,97384;0,00163
10,00000;0,66667;230,67493;0,00171
10,20000;0,68003;240,53582;0,00179
10,40000;0,69333;249,64155;0,00186
10,60000;0,70669;259,92233;0,00194
10,80000;0,71997;267,34227;0,00201
11,00000;0,73328;276,56080;0,00208
11,20000;0,74669;284,34738;0,00215
11,40000;0,76003;292,29061;0,00222
11,60000;0,77336;299,96124;0,00229
11,80000;0,78667;308,92910;0,00236
12,00000;0,79997;318,24163;0,00244
12,20000;0,81333;327,53851;0,00252
12,40000;0,82664;336,43744;0,00259
12,60000;0,84003;346,14792;0,00267
12,80000;0,85336;354,12249;0,00274
13,00000;0,86664;363,72331;0,00282
13,20000;0,88000;371,36886;0,00289
13,40000;0,89336;379,59723;0,00296
13,60000;0,90669;387,09240;0,00302
13,80000;0,91997;394,48412;0,00308
14,00000;0,93328;401,30247;0,00314
14,20000;0,94669;407,44711;0,00320
14,40000;0,96000;414,46597;0,00326
14,60000;0,97336;421,67916;0,00332
14,80000;0,98669;428,26561;0,00339
15,00000;0,99997;436,21510;0,00344
15,20000;1,01333;441,94614;0,00350
15,40000;1,02658;449,69823;0,00356
15,60000;1,04006;454,78693;0,00362
15,80000;1,05336;463,15943;0,00368
16,00000;1,06667;469,34169;0,00374
16,20000;1,08003;476,16628;0,00381
16,40000;1,09333;481,69363;0,00386
16,60000;1,10669;488,89113;0,00392
16,80000;1,11997;494,25242;0,00398
17,00000;1,13330;502,05779;0,00404
17,20000;1,14669;506,81117;0,00410
17,40000;1,16000;514,57579;0,00416
17,60000;1,17336;519,99665;0,00421
17,80000;1,18669;527,00923;0,00427
18,00000;1,19997;532,06971;0,00433
18,20000;1,21333;538,48070;0,00438
18,40000;1,22664;542,87692;0,00443
18,60000;1,24003;549,84880;0,00449
18,80000;1,25333;554,49880;0,00454
19,00000;1,26664;561,89992;0,00460
19,20000;1,28003;566,44967;0,00465
19,40000;1,29333;572,57554;0,00470
19,60000;1,30667;578,12165;0,00476
19,80000;1,32000;584,25064;0,00481
20,00000;1,33333;589,59629;0,00486
20,20000;1,34669;595,48398;0,00492
20,40000;1,35997;600,53505;0,00497
20,60000;1,37336;606,95545;0,00502
20,80000;1,38667;612,13188;0,00508
21,00000;1,39997;619,02544;0,00513
21,20000;1,41333;623,30882;0,00518
21,40000;1,42666;630,02999;0,00524
21,60000;1,44003;634,68316;0,00529
21,80000;1,45333;641,23198;0,00535
22,00000;1,46667;645,96036;0,00541
22,20000;1,48003;653,17038;0,00546
22,40000;1,49330;657,94257;0,00552
22,60000;1,50666;663,67048;0,00557
22,80000;1,52000;669,00984;0,00563
23,00000;1,53333;674,78158;0,00568
23,20000;1,54669;680,81343;0,00574
23,40000;1,56000;686,56327;0,00579
23,60000;1,57336;691,65509;0,00585
23,80000;1,58669;698,31046;0,00590
24,00000;1,59994;704,12611;0,00596
24,20000;1,61336;709,70673;0,00602
24,40000;1,62666;714,30663;0,00607
24,60000;1,64003;720,79594;0,00613
24,80000;1,65333;725,69977;0,00618
25,00000;1,66664;732,67161;0,00624
25,20000;1,68003;737,37176;0,00630
25,40000;1,69330;743,39733;0,00635
25,60000;1,70666;748,95290;0,00641
25,80000;1,71997;755,00044;0,00647
26,00000;1,73327;760,49333;0,00652
26,20000;1,74669;765,78567;0,00658
26,40000;1,76003;771,17519;0,00664
26,60000;1,77336;777,11926;0,00669
26,80000;1,78669;783,18557;0,00675
27,00000;1,79997;788,77248;0,00681
27,20000;1,81336;794,34058;0,00686
27,40000;1,82664;800,18127;0,00692
27,60000;1,84003;806,15673;0,00698
27,80000;1,85336;812,96880;0,00704
28,00000;1,86666;817,75347;0,00710
28,20000;1,88003;824,73792;0,00715
28,40000;1,89336;830,15878;0,00721
28,60000;1,90669;836,19375;0,00727
28,80000;1,91997;841,50173;0,00733
29,00000;1,93325;847,06042;0,00739
29,20000;1,94669;853,06093;0,00745
29,40000;1,95997;859,57851;0,00751
29,60000;1,97336;864,75490;0,00757
29,80000;1,98669;871,43537;0,00763
30,00000;2,00003;876,99089;0,00769
30,20000;2,01336;882,39918;0,00774
30,40000;2,02666;887,61328;0,00781
30,60000;2,04005;894,17780;0,00787
30,80000;2,05333;899,38240;0,00793
31,00000;2,06664;905,71186;0,00799
31,20000;2,08000;911,72177;0,00805
31,40000;2,09336;917,49672;0,00811
31,60000;2,10669;922,47883;0,00817
31,80000;2,11997;929,64815;0,00823
32,00000;2,13330;934,76186;0,00829
32,20000;2,14669;940,95664;0,00835
32,40000;2,15994;947,23292;0,00841
32,60000;2,17333;953,19897;0,00848
32,80000;2,18672;958,60725;0,00854
33,00000;2,20000;964,77075;0,00860
33,20000;2,21330;969,69958;0,00866
33,40000;2,22664;976,15449;0,00872
33,60000;2,24003;981,34335;0,00878
33,80000;2,25333;988,46564;0,00885
34,00000;2,26661;993,54181;0,00891
34,20000;2,28003;1000,00296;0,00897
34,40000;2,29333;1005,86554;0,00903
34,60000;2,30666;1012,49274;0,00910
34,80000;2,32000;1017,57208;0,00916
35,00000;2,33330;1023,53180;0,00922
35,20000;2,34669;1030,09949;0,00928
35,40000;2,35994;1035,60807;0,00935
35,60000;2,37336;1041,41114;0,00941
35,80000;2,38669;1047,77832;0,00947
36,00000;2,40000;1053,69734;0,00954
36,20000;2,41333;1059,82628;0,00960
36,40000;2,42664;1064,85542;0,00966
36,60000;2,44000;1071,66748;0,00973
36,80000;2,45330;1078,21012;0,00979
37,00000;2,46666;1083,80327;0,00985
37,20000;2,48005;1088,20889;0,00992
37,40000;2,49333;1094,83916;0,00998
37,60000;2,50666;1100,74887;0,01005
37,80000;2,51997;1106,37648;0,01011
38,00000;2,53330;1111,55920;0,01017
38,20000;2,54669;1117,63170;0,01024
38,40000;2,56000;1123,86728;0,01030
38,60000;2,57336;1129,59826;0,01036
38,80000;2,58666;1135,50164;0,01043
39,00000;2,59997;1141,65256;0,01049
39,20000;2,61336;1146,49683;0,01056
39,40000;2,62664;1152,87649;0,01062
39,60000;2,64000;1158,41636;0,01069
39,80000;2,65333;1164,04090;0,01075
40,00000;2,66666;1169,64970;0,01082
40,20000;2,68005;1176,23620;0,01088
40,40000;2,69333;1181,37188;0,01095
40,60000;2,70669;1187,77035;0,01101
40,80000;2,71997;1193,66115;0,01108
41,00000;2,73327;1198,38947;0,01114
41,20000;2,74666;1205,24550;0,01121
41,40000;2,76003;1210,93262;0,01127
41,60000;2,77336;1216,36596;0,01134
41,80000;2,78666;1222,13773;0,01140
42,00000;2,80000;1228,06616;0,01147
42,20000;2,81336;1234,04479;0,01153
42,40000;2,82666;1238,82322;0,01160
42,60000;2,84003;1246,28395;0,01166
42,80000;2,85336;1251,53866;0,01173
43,00000;2,86663;1257,02536;0,01179
43,20000;2,88003;1262,58088;0,01186
43,40000;2,89336;1268,49683;0,01193
43,60000;2,90669;1274,15266;0,01199
43,80000;2,92000;1279,91503;0,01206
44,00000;2,93327;1285,42045;0,01213
44,20000;2,94669;1291,77812;0,01219
44,40000;2,96000;1297,79745;0,01226
44,60000;2,97336;1303,46892;0,01233
44,80000;2,98669;1307,86831;0,01239
45,00000;2,99997;1314,24796;0,01246
45,20000;3,01333;1320,13252;0,01253
45,33600;3,02233;1052,60685;0,00725
45,34400;3,02287;742,62652;0,00065