File: 02_Appendices/Appendix_C_Experimental_Data_and_Analysis Reports/C_1_Materials_Tests/C_1_1_Tensile_tests/C_1_1_5_Smooth 3D D20/Specimen_RawData_1.csv
Text Inputs : Specimen label;"1"
Dimension : Length;50,00000;mm
Dimension : Final length;100,00000;mm
Test : Rate 1;4,00000;mm/min
General : Unique Identifier;"{B0461051-27F3-4CCF-AE8F-B477290E5E6C}"

Time;Extension;Load;Strain 1
(sec);(mm);(N);(mm/mm)
0,00000;0,00000;-1,32470;-0,00012
0,50000;0,03179;23,98711;0,00001
1,00000;0,06655;46,33156;0,00018
1,50000;0,10003;51,41085;0,00025
2,00000;0,13328;57,24529;0,00029
2,50000;0,16667;59,42929;0,00033
3,00000;0,20000;62,18044;0,00036
3,50000;0,23336;66,51396;0,00040
4,00000;0,26658;69,05830;0,00042
4,50000;0,30003;71,49611;0,00043
5,00000;0,33333;74,05612;0,00046
5,50000;0,36664;79,62735;0,00049
6,00000;0,40000;86,43941;0,00053
6,50000;0,43336;100,42076;0,00061
7,00000;0,46669;121,85966;0,00075
7,50000;0,49997;148,40291;0,00091
8,00000;0,53330;172,38301;0,00108
8,50000;0,56672;198,22123;0,00125
9,00000;0,59997;224,73629;0,00143
9,50000;0,63333;251,85607;0,00162
10,00000;0,66669;276,26546;0,00181
10,50000;0,70000;301,94703;0,00199
11,00000;0,73328;327,96385;0,00218
11,50000;0,76672;351,27341;0,00236
12,00000;0,79997;377,10224;0,00256
12,50000;0,83333;402,18527;0,00274
13,00000;0,86664;426,19361;0,00293
13,50000;0,90006;451,01973;0,00312
14,00000;0,93328;473,76212;0,00331
14,50000;0,96672;497,87699;0,00350
15,00000;1,00000;519,99269;0,00369
15,50000;1,03336;541,46918;0,00386
16,00000;1,06661;559,90000;0,00403
16,50000;1,10003;578,77577;0,00419
17,00000;1,13330;598,25629;0,00435
17,50000;1,16667;617,18216;0,00451
18,00000;1,19997;635,93886;0,00466
18,50000;1,23339;653,03170;0,00482
19,00000;1,26664;670,98308;0,00497
19,50000;1,30000;689,81182;0,00513
20,00000;1,33333;706,63835;0,00529
20,50000;1,36669;723,88472;0,00544
21,00000;1,40000;741,05901;0,00559
21,50000;1,43336;757,31208;0,00574
22,00000;1,46667;774,04771;0,00589
22,50000;1,50000;790,67051;0,00604
23,00000;1,53330;806,46928;0,00618
23,50000;1,56666;821,09608;0,00633
24,00000;1,59997;836,53443;0,00646
24,50000;1,63336;851,73156;0,00660
25,00000;1,66664;866,31142;0,00675
25,50000;1,70000;881,36438;0,00688
26,00000;1,73333;895,72491;0,00702
26,50000;1,76669;910,84056;0,00716
27,00000;1,79994;925,86847;0,00730
27,50000;1,83336;940,21326;0,00744
28,00000;1,86664;954,84322;0,00758
28,50000;1,90005;969,90243;0,00772
29,00000;1,93327;983,77727;0,00786
29,50000;1,96669;998,37594;0,00800
30,00000;2,00003;1013,27216;0,00814
30,50000;2,03336;1027,23790;0,00828
31,00000;2,06661;1041,58269;0,00842
31,50000;2,10005;1056,40693;0,00857
32,00000;2,13330;1070,25979;0,00871
32,50000;2,16666;1084,47932;0,00885
33,00000;2,20000;1099,26593;0,00899
33,50000;2,23336;1113,44783;0,00913
34,00000;2,26661;1127,16286;0,00928
34,50000;2,30003;1141,08464;0,00942
35,00000;2,33333;1155,74282;0,00956
35,50000;2,36666;1169,97166;0,00971
36,00000;2,40000;1184,57973;0,00985
36,50000;2,43333;1198,54230;0,01000
37,00000;2,46669;1213,16593;0,01014
37,50000;2,50000;1227,05325;0,01029
38,00000;2,53327;1240,34211;0,01043
38,50000;2,56672;1255,34814;0,01058
39,00000;2,59997;1270,64548;0,01073
39,50000;2,63336;1284,35111;0,01088
40,00000;2,66666;1298,30111;0,01103
40,50000;2,70003;1312,81829;0,01118
41,00000;2,73330;1326,75888;0,01133
41,50000;2,76672;1340,20438;0,01148
42,00000;2,79994;1355,27616;0,01163
42,50000;2,83336;1368,94109;0,01178
43,00000;2,86666;1383,04466;0,01193
43,50000;2,90005;1396,96021;0,01209
44,00000;2,93327;1410,89763;0,01224
44,50000;2,96669;1425,60285;0,01239
45,00000;2,99994;1439,94140;0,01255
45,50000;3,03339;1453,31165;0,01270
46,00000;3,06666;1467,82883;0,01286
46,50000;3,10002;1481,95121;0,01302
47,00000;3,13330;1495,27453;0,01318
47,50000;3,16669;1509,63506;0,01334
48,00000;3,20000;1524,52504;0,01350
48,50000;3,23336;1538,01758;0,01366
49,00000;3,26661;1552,08036;0,01382
49,50000;3,30002;1566,09938;0,01398
50,00000;3,33336;1579,27852;0,01415
50,50000;3,36663;1593,32883;0,01431
51,00000;3,40000;1608,09346;0,01448
51,50000;3,43339;1622,05920;0,01464
52,00000;3,46666;1636,22219;0,01481
52,50000;3,49997;1650,10653;0,01498
53,00000;3,53336;1663,62096;0,01515
53,50000;3,56669;1677,12588;0,01532
54,00000;3,59994;1691,53344;0,01548
54,50000;3,63336;1705,69029;0,01566
55,00000;3,66666;1718,91954;0,01583
55,50000;3,70000;1732,40267;0,01600
56,00000;3,73327;1745,24970;0,01617
56,50000;3,76669;1758,60450;0,01635
57,00000;3,80000;1772,75501;0,01652
57,50000;3,83336;1786,37914;0,01670
58,00000;3,86661;1798,91288;0,01687
58,50000;3,90008;1812,10451;0,01705
59,00000;3,93330;1825,36524;0,01723
59,50000;3,96669;1839,08027;0,01740
60,00000;4,00002;1852,36596;0,01759
60,50000;4,03339;1865,36647;0,01777
61,00000;4,06663;1878,53314;0,01795
61,50000;4,10002;1891,16392;0,01813
62,00000;4,13330;1904,40901;0,01831
62,50000;4,16669;1916,62628;0,01850
63,00000;4,20000;1929,15983;0,01868
63,50000;4,23336;1941,70922;0,01886
64,00000;4,26660;1953,82945;0,01904
64,50000;4,30002;1966,44776;0,01923
65,00000;4,33330;1978,33274;0,01942
65,50000;4,36669;1990,45278;0,01961
66,00000;4,39999;2003,38457;0,01980
66,50000;4,43333;2014,74000;0,01999
67,00000;4,46666;2026,51862;0,02018
67,50000;4,50002;2038,36299;0,02037
68,00000;4,53330;2050,11014;0,02056
68,50000;4,56666;2061,45309;0,02076
69,00000;4,59999;2073,80503;0,02095
69,50000;4,63336;2085,21709;0,02115
70,00000;4,66666;2096,89215;0,02134
70,50000;4,69999;2108,44819;0,02154
71,00000;4,73330;2119,15839;0,02174
71,50000;4,76672;2129,47354;0,02194
72,00000;4,79997;2140,97332;0,02214
72,50000;4,83333;2151,40432;0,02234
73,00000;4,86663;2162,58131;0,02254
73,50000;4,90005;2173,12220;0,02275
74,00000;4,93330;2183,08326;0,02295
74,50000;4,96672;2194,00637;0,02316
75,00000;4,99994;2205,14257;0,02337
75,50000;5,03336;2214,67447;0,02357
76,00000;5,06666;2225,07436;0,02378
76,50000;5,09999;2235,30494;0,02399
77,00000;5,13327;2244,79921;0,02420
77,50000;5,16669;2254,47211;0,02442
78,00000;5,19999;2264,58069;0,02463
78,50000;5,23338;2273,42620;0,02484
79,00000;5,26663;2283,03969;0,02506
79,50000;5,30002;2292,56526;0,02528
80,00000;5,33333;2300,47088;0,02550
80,50000;5,36666;2309,35104;0,02571
81,00000;5,39999;2318,55381;0,02594
81,50000;5,43336;2326,57865;0,02615
82,00000;5,46666;2334,41535;0,02638
82,50000;5,49996;2342,46813;0,02660
83,00000;5,53330;2350,69338;0,02682
83,50000;5,56672;2357,56505;0,02705
84,00000;5,59997;2366,32600;0,02727
84,50000;5,63336;2373,00657;0,02750
85,00000;5,66663;2380,34502;0,02773
85,50000;5,70002;2388,04072;0,02796
86,00000;5,73333;2394,06321;0,02819
86,50000;5,76666;2400,30494;0,02842
87,00000;5,79997;2407,57447;0,02866
87,50000;5,83338;2414,11701;0,02889
88,00000;5,86663;2420,29298;0,02913
88,50000;5,90002;2425,95822;0,02937
89,00000;5,93333;2431,88366;0,02960
89,50000;5,96669;2437,43919;0,02984
90,00000;5,99999;2443,60268;0,03008
90,50000;6,03333;2448,56905;0,03033
91,00000;6,06666;2453,73920;0,03057
91,50000;6,10005;2458,18552;0,03081
92,00000;6,13327;2462,90453;0,03106
92,50000;6,16666;2467,09082;0,03130
93,00000;6,20002;2472,14492;0,03155
93,50000;6,23338;2475,06853;0,03180
94,00000;6,26660;2479,26731;0,03205
94,50000;6,30002;2483,42846;0,03230
95,00000;6,33327;2486,86895;0,03256
95,50000;6,36669;2489,77672;0,03281
96,00000;6,39999;2492,83500;0,03306
96,50000;6,43330;2495,76475;0,03332
97,00000;6,46666;2499,21456;0,03358
97,50000;6,50002;2501,21374;0,03384
98,00000;6,53330;2503,82703;0,03410
98,50000;6,56666;2505,76660;0,03435
99,00000;6,59999;2507,14216;0,03462
99,50000;6,63338;2508,42683;0,03488
100,00000;6,66666;2510,82405;0,03514
100,50000;6,69999;2512,38439;0,03540
101,00000;6,73333;2513,53122;0,03566
101,50000;6,76674;2513,85719;0,03593
102,00000;6,79993;2515,49911;0,03619
102,50000;6,83333;2516,18531;0,03646
103,00000;6,86669;2516,73367;0,03673
103,50000;6,90005;2518,16567;0,03700
104,00000;6,93324;2517,69237;0,03726
104,50000;6,96669;2517,41353;0,03753
105,00000;6,99999;2518,06527;0,03780
105,50001;7,03335;2517,50126;0,03807
106,00001;7,06660;2517,18480;0,03834
106,50001;7,09999;2517,53889;0,03861
107,00001;7,13335;2518,00586;0,03888
107,50001;7,16669;2517,23193;0,03916
108,00001;7,19999;2516,92161;0,03943
108,50001;7,23333;2515,30483;0,03970
109,00001;7,26660;2514,60914;0,03998
109,50001;7,30005;2514,54338;0,04025
110,00001;7,33335;2513,22426;0,04053
110,50001;7,36663;2512,49727;0,04081
111,00001;7,39996;2511,59798;0,04108
111,50001;7,43338;2509,43266;0,04136
112,00001;7,46669;2509,23838;0,04164
112,50001;7,49999;2507,71567;0,04192
113,00001;7,53330;2506,16763;0,04219
113,50001;7,56671;2503,84584;0,04247
114,00001;7,59993;2503,87099;0,04274
114,50001;7,63335;2501,91558;0,04302
115,00001;7,66666;2500,13582;0,04330
115,50001;7,70002;2498,15248;0,04358
116,00001;7,73332;2496,33193;0,04386
116,50001;7,76666;2495,31660;0,04414
116,93401;7,79563;2169,54071;0,04826
116,94401;7,79626;1449,15674;0,05945